Gyro-X;Gyro-Z;AF3;Gyro-Y;T7;Acc-X;Pz;QualityData_1;QualityData_2;Acc-Z;Acc-Y;T8;Mag-X;AF4;Mag-Z;Mag-Y;Mag-X;Gyro-X 
4205.76923070;4176.15384602;4235.76923077;4235.51282052;4336.66666688;2006.66666195;8241.92308540;-0.00000896;3813.20512731;4337.43589765;4207.17948711;4306.41025655;4463.58974408;4238.58974359;4201.41025634;4205.12820506
4206.66666660;4201.66666660;4437.30769273;4235.76923077;4531.02564165;2007.69230297;229.99999153;-0.00000896;3809.23076833;4335.51282073;4272.56410264;4306.15384630;4631.53846238;4239.74358975;4175.64102551;4205.12820506
4234.48717949;4202.17948711;4398.84615420;4234.35897436;4466.02564152;2006.15384143;8241.92308540;-0.00000896;3841.66666584;4306.41025655;4266.66666674;4303.97435912;4535.89743653;4239.23076923;4201.41025634;4237.94871795
4208.20512814;4202.69230763;4305.12820527;4235.38461539;4436.02564145;2003.20512348;229.99999153;-0.00000896;3873.71794796;4302.82051296;4274.10256418;4303.97435912;4567.05128275;4240.25641026;4204.61538455;4205.12820506
4205.64102558;4204.23076917;4398.46153881;4235.76923077;4399.35897471;2005.89743118;8241.92308540;-0.00000896;3873.07692232;4307.17948732;4234.74358975;4332.43589765;4504.48718005;4238.20512821;4201.41025634;4205.12820506
4205.76923070;4203.97435891;4233.97435898;4234.74358975;4306.53846168;2007.94871323;229.99999153;-0.00000896;3841.41025558;4306.28205142;4204.74358968;4304.35897450;4466.28205177;4239.23076923;4201.28205122;4205.12820506
4205.51282045;4206.15384609;4432.30769273;4234.10256411;4497.43589800;2007.17948246;8241.92308540;-0.00000896;3813.20512731;4339.74358996;4438.33333375;4303.84615399;4793.71794990;4239.35897436;4201.28205122;4205.12820506
4205.51282045;4204.87179481;4403.97435933;4208.33333327;4563.33333403;2003.07691836;229.99999153;-0.00000896;3842.30769148;4337.94871816;4171.66666653;4302.30769245;4468.07692357;4238.97435898;4201.53846147;4205.12820506
4205.64102558;4204.35897429;4273.58974366;4208.33333327;4370.00000028;2002.94871323;8238.20513669;-0.00000896;3842.30769148;4336.92307714;4302.17948732;4305.25641040;4596.28205205;4239.87179488;4201.53846147;4205.12820506
4206.79487173;4201.28205122;4304.74358989;4234.61538462;4435.89743632;1975.51281572;8276.41026496;-0.00000896;3846.41025558;4338.07692329;4271.66666674;4302.30769245;4466.28205177;4239.48717949;4201.66666660;4205.12820506
4206.79487173;4176.02564089;4299.61538476;4234.10256411;4370.51282079;2002.94871323;8240.89744438;-0.00000896;3873.58974283;4337.30769252;4138.33333313;4303.71794886;4497.05128261;4238.84615385;4201.41025634;4205.12820506
4205.25641019;4201.02564096;4464.10256459;4234.48717949;4465.64102613;2004.99999528;229.99999153;-0.00000896;3847.69230686;4336.66666688;4437.94871837;4304.35897450;4694.48718046;4238.58974359;4201.53846147;4205.12820506
4203.20512814;4201.66666660;4340.38461560;4235.51282052;4403.46153881;2005.76922605;229.99999153;-0.00000896;3845.38461455;4335.12820534;4169.74358961;4304.23076937;4595.25641102;4238.46153847;4176.02564089;4205.12820506
4202.43589737;4201.02564096;4368.20512849;4235.89743590;4435.12820555;2007.69230297;229.99999153;-0.00000896;3847.69230686;4306.92307707;4269.87179495;4303.20512835;4500.64102620;4239.61538462;4201.02564096;4205.12820506
4201.15384609;4201.15384609;4333.07692329;4237.05128206;4402.05128240;1972.82050803;229.99999153;-0.00000896;3847.94871712;4333.46153867;4205.38461532;4332.30769252;4470.89743639;4237.30769231;4203.20512814;4205.12820506
4174.99999986;4175.76923063;4300.64102578;4236.53846154;4336.79487201;2003.20512348;-0.00000896;-0.00000896;3876.92307616;4306.66666681;4239.74358975;4303.97435912;4570.00000070;4238.71794872;4201.66666660;4172.30769217
4173.07692294;4175.51282038;4399.10256445;4237.94871795;4438.33333375;1976.92307213;-0.00000896;-0.00000896;3876.02564027;4333.07692329;4337.56410278;4301.79487194;4599.23077000;4239.74358975;4201.92307686;4172.30769217
4175.25641012;4174.74358961;4366.53846182;4240.38461539;4463.58974408;2004.23076451;-0.00000896;-0.00000896;3847.56410173;4339.35897457;4274.48717956;4302.94871809;4536.28205191;4239.61538462;4201.41025634;4172.30769217
4175.38461525;4174.99999986;4332.82051303;4240.51282052;4369.48717977;2006.41025169;-0.00000896;-0.00000896;3845.76922994;4338.84615406;4301.15384630;4305.12820527;4503.07692364;4238.33333334;4175.51282038;4172.30769217
4175.76923063;4175.51282038;4142.56410236;4266.66666674;4240.89743590;2008.58973887;-0.00000896;-0.00000896;3841.79487096;4336.02564124;4207.56410250;4304.23076937;4531.53846217;4239.61538462;4201.15384609;4172.30769217
4175.89743576;4176.02564089;4503.46153902;4241.15384616;4635.76923161;2003.71794400;-0.00000896;-0.00000896;3840.76922994;4339.35897457;4405.38461574;4305.38461553;4564.61538531;4238.33333334;4201.66666660;4172.30769217
4202.17948711;4174.87179474;4267.30769238;4240.12820513;4334.87179508;2003.58973887;-0.00000896;-0.00000896;3840.89743507;4337.82051303;4205.76923070;4302.43589758;4565.89743660;4241.41025641;4201.15384609;4205.12820506
4202.17948711;4174.61538448;4368.97435926;4240.38461539;4467.17948767;2004.10255938;-0.00000896;-0.00000896;3815.25640936;4333.84615406;4238.58974359;4307.05128219;4529.48718012;4238.20512821;4201.28205122;4205.12820506
4202.56410250;4175.51282038;4305.89743604;4240.12820513;4433.33333375;2006.53845682;-0.00000896;-0.00000896;3813.97435807;4304.74358989;4239.23076923;4305.12820527;4468.46153895;4238.71794872;4176.15384602;4205.12820506
4203.84615378;4176.02564089;4205.25641019;4239.48717949;4268.07692315;2005.38461066;-0.00000896;-0.00000896;3814.35897346;4332.69230790;4239.74358975;4304.74358989;4431.92307734;4238.71794872;4201.15384609;4205.12820506
4204.87179481;4176.28205115;4465.00000049;4239.35897436;4497.82051338;2004.99999528;-0.00000896;-0.00000896;3812.56410166;4304.48717963;4496.92307748;4306.15384630;4759.23077035;4238.33333334;4201.53846147;4205.12820506
4205.51282045;4176.28205115;4338.20512842;4237.82051282;4464.10256459;2003.46153374;-0.00000896;-0.00000896;3812.69230679;4335.12820534;4174.74358961;4305.38461553;4470.76923126;4239.10256411;4201.53846147;4205.12820506
4204.87179481;4202.69230763;4339.10256431;4236.02564103;4368.97435926;2002.82050810;-0.00000896;-0.00000896;3813.46153756;4335.25641047;4303.84615399;4303.07692322;4565.00000070;4238.97435898;4202.05128199;4205.12820506
4204.48717942;4201.92307686;4306.02564117;4236.15384616;4399.87179522;2004.61537989;-0.00000896;-0.00000896;3812.43589654;4307.56410271;4268.84615392;4333.07692329;4437.43589786;4238.07692308;4201.15384609;4205.12820506
4206.15384609;4202.17948711;4339.10256431;4235.12820513;4367.30769259;2005.38461066;-0.00000896;-0.00000896;3814.23076833;4333.20512842;4172.56410243;4304.48717963;4566.53846224;4239.35897436;4174.23076910;4205.12820506
4204.87179481;4202.94871788;4595.25641102;4234.61538462;4726.28205233;2006.15384143;-0.00000896;-0.00000896;3813.33333243;4307.17948732;4401.15384651;4303.97435912;4569.35897506;4240.00000000;4201.53846147;4205.12820506
4205.38461532;4202.69230763;4234.23076923;4234.10256411;4267.43589751;2005.51281579;-0.00000896;-0.00000896;3813.97435807;4335.25641047;4273.97435905;4305.00000014;4566.02564172;4239.74358975;4174.23076910;4205.12820506
4205.51282045;4203.33333327;4400.89743625;4208.58974352;4398.33333368;2003.58973887;-0.00000896;-0.00000896;3840.38461455;4335.00000021;4269.74358982;4304.48717963;4531.79487242;4239.87179488;4201.02564096;4205.12820506
4206.02564096;4203.07692301;4274.35897443;4234.10256411;4398.71794907;2003.07691836;-0.00000896;-0.00000896;3840.76922994;4335.51282073;4174.10256397;4305.51282066;4467.17948767;4238.46153847;4201.53846147;4205.12820506
4205.38461532;4203.58974352;4402.05128240;4234.10256411;4434.74359016;2009.23076451;-0.00000896;-0.00000896;3840.89743507;4333.97435919;4404.61538497;4302.56410271;4567.30769301;4239.10256411;4175.38461525;4205.12820506
4206.15384609;4203.84615378;4366.15384644;4234.87179488;4372.82051310;2010.12820041;-0.00000896;-0.00000896;3811.15384525;4305.51282066;4267.43589751;4307.05128219;4697.56410354;4240.12820513;4201.28205122;4205.12820506
4206.02564096;4203.58974352;4332.69230790;4235.00000000;4466.79487229;2003.71794400;-0.00000896;-0.00000896;3842.30769148;4333.46153867;4398.58974394;4302.43589758;4467.05128254;4241.92307693;4201.02564096;4205.12820506
4206.15384609;4203.33333327;4399.87179522;4234.23076923;4405.12820548;1976.66666188;-0.00000896;-0.00000896;3842.69230686;4334.74358996;4273.71794879;4307.56410271;4534.35897499;4239.23076923;4201.02564096;4205.12820506
4205.76923070;4203.20512814;4270.38461546;4235.00000000;4336.41025662;2002.56409784;-0.00000896;-0.00000896;3844.61538379;4336.15384637;4142.82051262;4306.92307707;4535.12820576;4240.00000000;4176.28205115;4205.12820506
4205.38461532;4201.66666660;4497.17948774;4236.15384616;4629.74359058;2009.10255938;229.99999153;-0.00000896;3841.41025558;4333.33333355;4499.74359030;4301.28205142;4631.02564186;4240.00000000;4201.66666660;4205.12820506
4205.12820506;4203.97435891;4302.94871809;4235.64102564;4338.33333355;2008.71794400;102.17947843;-0.00000896;3839.99999917;4333.71794893;4175.51282038;4302.82051296;4534.35897499;4238.33333334;4176.15384602;4205.12820506
4205.38461532;4203.71794865;4338.33333355;4236.66666667;4466.79487229;2004.99999528;102.69229894;-0.00000896;3813.84615295;4332.94871816;4206.79487173;4305.25641040;4562.82051352;4241.15384616;4201.41025634;4205.12820506
4206.02564096;4204.48717942;4266.66666674;4237.05128206;4306.92307707;2002.05127733;8375.64103440;-0.00000896;3841.02564020;4339.10256431;4302.56410271;4303.46153860;4471.41025690;4238.33333334;4176.15384602;4205.12820506
4205.51282045;4203.20512814;4239.23076923;4236.02564103;4306.92307707;2002.69230297;229.99999153;-0.00000896;3840.89743507;4332.43589765;4108.20512793;4305.89743604;4530.38461601;4238.07692308;4201.02564096;4205.12820506
4205.89743583;4202.05128199;4499.10256466;4236.28205129;4597.56410333;2005.89743118;229.99999153;-0.00000896;3843.97435814;4307.56410271;4405.25641061;4305.00000014;4662.56410347;4239.87179488;4202.43589737;4205.12820506
4204.87179481;4202.30769224;4335.12820534;4236.02564103;4369.74359003;2006.15384143;229.99999153;-0.00000896;3842.56410173;4334.61538483;4239.35897436;4303.33333348;4502.69230825;4241.15384616;4201.28205122;4205.12820506
4204.10256404;4204.35897429;4333.71794893;4236.41025641;4434.10256452;2006.79486707;229.99999153;-0.00000896;3840.76922994;4335.38461560;4239.74358975;4304.10256425;4532.17948781;4238.20512821;4201.41025634;4205.12820506
4204.99999993;4203.97435891;4303.84615399;4238.07692308;4338.33333355;2004.10255938;229.99999153;-0.00000896;3841.92307609;4336.53846175;4273.84615392;4302.56410271;4464.35897485;4239.23076923;4201.79487173;4205.12820506
4204.10256404;4203.46153840;4431.28205170;4237.05128206;4498.71794928;1975.89743111;229.99999153;-0.00000896;3814.35897346;4333.84615406;4174.35897422;4304.35897450;4633.46153930;4238.84615385;4201.41025634;4205.12820506
4205.38461532;4203.33333327;4304.61538476;4237.17948718;4404.35897471;1975.76922598;229.99999153;-0.00000896;3813.97435807;4334.23076944;4465.38461587;4332.56410278;4562.82051352;4238.33333334;4201.53846147;4205.12820506
4204.99999993;4202.82051275;4463.97435946;4236.66666667;4533.58974422;2003.58973887;229.99999153;-0.00000896;3811.02564013;4337.30769252;4201.92307686;4304.87179501;4566.53846224;4239.87179488;4201.41025634;4205.12820506
4204.87179481;4202.69230763;4306.79487194;4236.66666667;4402.69230804;2002.69230297;229.99999153;-0.00000896;3811.92307602;4337.94871816;4307.43589758;4303.20512835;4471.66666716;4239.23076923;4201.66666660;4205.12820506
4205.89743583;4202.17948711;4238.71794872;4235.38461539;4400.64102599;2002.30768759;229.99999153;-0.00000896;3811.41025551;4335.64102585;4170.51282038;4304.23076937;4434.10256452;4238.58974359;4201.28205122;4205.12820506
4205.51282045;4201.28205122;4432.82051324;4235.25641026;4502.94871851;2004.23076451;229.99999153;-0.00000896;3813.33333243;4332.56410278;4336.92307714;4303.58974373;4629.10256494;4237.82051282;4201.53846147;4205.12820506
4206.02564096;4175.64102551;4399.10256445;4234.23076923;4499.23076979;2002.69230297;229.99999153;-0.00000896;3814.99999910;4336.28205149;4208.46153840;4305.89743604;4503.20512876;4240.25641026;4201.41025634;4205.12820506
4207.05128199;4175.25641012;4302.05128219;4234.35897436;4367.94871823;2006.66666195;229.99999153;-0.00000896;3813.07692218;4333.71794893;4307.17948732;4305.12820527;4569.35897506;4240.12820513;4175.51282038;4205.12820506
4207.05128199;4201.15384609;4305.38461553;4233.84615385;4369.87179515;2007.17948246;229.99999153;-0.00000896;3842.69230686;4307.56410271;4332.69230790;4305.00000014;4567.43589813;4239.23076923;4201.28205122;4205.12820506
4206.15384609;4203.33333327;4236.41025641;4234.74358975;4335.12820534;2007.69230297;229.99999153;-0.00000896;3842.43589661;4305.25641040;4109.10256383;4303.58974373;4468.07692357;4240.38461539;4201.41025634;4205.12820506
4205.51282045;4203.58974352;4463.58974408;4235.38461539;4569.48718019;2004.87179015;229.99999153;-0.00000896;3841.66666584;4305.64102578;4438.07692350;4303.33333348;4694.35897534;4240.12820513;4203.46153840;4205.12820506
4205.51282045;4202.82051275;4207.05128199;4234.74358975;4300.76923091;2010.12820041;229.99999153;-0.00000896;3842.56410173;4304.74358989;4204.61538455;4302.94871809;4504.23076979;4240.25641026;4201.66666660;4205.12820506
4206.02564096;4202.94871788;4366.53846182;4236.15384616;4434.87179529;2007.05127733;229.99999153;-0.00000896;3842.43589661;4336.79487201;4240.12820513;4305.51282066;4569.74359044;4239.35897436;4201.92307686;4205.12820506
4205.38461532;4204.10256404;4305.25641040;4237.17948718;4405.76923112;2007.69230297;229.99999153;-0.00000896;3842.17948635;4336.92307714;4235.89743590;4303.58974373;4531.53846217;4238.20512821;4201.15384609;4205.12820506
4205.64102558;4203.84615378;4204.10256404;4236.28205129;4299.48717963;2008.97435425;229.99999153;-0.00000896;3840.12820430;4335.51282073;4207.56410250;4303.71794886;4567.17948788;4239.74358975;4201.53846147;4205.12820506
4206.92307686;4202.94871788;4630.12820597;4235.89743590;4667.05128296;2005.51281579;229.99999153;-0.00000896;3815.12820423;4332.30769252;4367.43589772;4302.82051296;4699.23077021;4239.74358975;4201.02564096;4205.12820506
4205.64102558;4204.74358968;4202.94871788;4234.10256411;4301.92307707;2002.56409784;229.99999153;-0.00000896;3814.35897346;4306.53846168;4305.89743604;4303.07692322;4496.66666723;4240.12820513;4201.66666660;4205.12820506
4205.25641019;4204.74358968;4306.92307707;4234.48717949;4365.51282079;1977.17948239;229.99999153;-0.00000896;3812.30769141;4306.66666681;4267.69230777;4304.87179501;4568.07692378;4238.71794872;4201.79487173;4205.12820506
4205.76923070;4203.97435891;4300.38461553;4236.15384616;4370.38461567;2003.46153374;229.99999153;-0.00000896;3842.30769148;4337.82051303;4171.92307679;4305.89743604;4469.35897485;4240.00000000;4201.28205122;4205.12820506
4204.10256404;4203.84615378;4367.05128233;4235.76923077;4402.69230804;1976.41025162;229.99999153;-0.00000896;3840.51281968;4334.48717970;4338.58974380;4304.87179501;4599.87179564;4239.10256411;4203.84615378;4205.12820506
4205.25641019;4203.07692301;4431.53846196;4235.12820513;4469.35897485;2003.71794400;229.99999153;-0.00000896;3839.99999917;4338.20512842;4267.69230777;4304.48717963;4631.28205212;4238.46153847;4201.15384609;4205.12820506
4204.10256404;4203.84615378;4373.20512849;4236.02564103;4499.35897492;2005.64102092;229.99999153;-0.00000896;3813.46153756;4335.12820534;4334.10256431;4304.74358989;4501.15384671;4239.23076923;4201.41025634;4205.12820506
4203.84615378;4202.94871788;4334.74358996;4234.74358975;4436.02564145;2006.15384143;229.99999153;-0.00000896;3812.69230679;4332.94871816;4239.61538462;4304.87179501;4500.89743646;4240.76923077;4201.15384609;4205.12820506
4204.74358968;4202.05128199;4208.84615378;4235.51282052;4307.56410271;2004.10255938;229.99999153;-0.00000896;3813.20512731;4336.53846175;4137.69230749;4302.94871809;4464.10256459;4238.58974359;4175.89743576;4205.12820506
4205.12820506;4202.56410250;4502.56410312;4234.48717949;4597.05128282;2006.41025169;229.99999153;-0.00000896;3813.07692218;4339.35897457;4399.10256445;4333.20512842;4601.28205205;4238.97435898;4201.02564096;4205.12820506
4203.97435891;4201.53846147;4305.76923091;4235.00000000;4334.23076944;2002.56409784;229.99999153;-0.00000896;3813.97435807;4336.15384637;4240.00000000;4305.25641040;4497.56410312;4239.10256411;4201.41025634;4205.12820506
4204.87179481;4201.41025634;4403.71794907;4235.64102564;4400.76923112;2003.97435425;229.99999153;-0.00000896;3813.46153756;4305.76923091;4235.25641026;4303.20512835;4634.23077007;4238.71794872;4201.02564096;4205.12820506
4204.23076917;4202.82051275;4471.15384664;4235.64102564;4371.66666695;2008.58973887;229.99999153;-0.00000896;3813.71794782;4332.94871816;4267.94871802;4302.94871809;4696.53846252;4240.00000000;4203.20512814;4205.12820506
4205.25641019;4203.97435891;4432.30769273;4236.53846154;4370.51282079;2008.07691836;8239.48718797;-0.00000896;3813.97435807;4335.25641047;4173.07692294;4300.76923091;4569.87179557;4240.51282052;4201.28205122;4205.12820506
4205.76923070;4203.58974352;4629.74359058;4236.41025641;4497.94871851;1975.64102085;8239.10257258;-0.00000896;3844.23076840;4337.69230790;4372.05128233;4302.69230784;4792.05128324;4239.23076923;4201.79487173;4205.12820506
4204.87179481;4202.43589737;4502.56410312;4236.28205129;4432.56410298;2004.35896964;229.99999153;-0.00000896;3843.46153763;4335.76923098;4206.66666660;4303.84615399;4667.17948809;4241.15384616;4201.15384609;4205.12820506
4203.07692301;4176.28205115;4569.23076993;4236.28205129;4467.30769280;2008.46153374;8239.10257258;-0.00000896;3813.33333243;4333.20512842;4240.25641026;4305.25641040;4532.82051345;4239.35897436;4201.28205122;4205.12820506
4201.79487173;4201.15384609;4468.33333382;4235.51282052;4471.02564152;2005.12820041;-0.00000896;-0.00000896;3811.79487090;4332.43589765;4205.25641019;4301.92307707;4635.38461622;4240.76923077;4201.92307686;4205.12820506
4201.92307686;4203.07692301;4372.17948746;4234.61538462;4366.79487208;2003.71794400;-0.00000896;-0.00000896;3814.10256320;4334.23076944;4333.07692329;4303.33333348;4633.97435981;4238.58974359;4201.79487173;4205.12820506
4202.94871788;4203.33333327;4471.66666716;4235.51282052;4467.82051331;2005.89743118;-0.00000896;-0.00000896;3841.02564020;4307.56410271;4305.12820527;4305.00000014;4666.41025732;4240.64102564;4201.28205122;4205.12820506
4202.56410250;4202.05128199;4433.20512863;4235.12820513;4436.15384657;2006.28204656;-0.00000896;-0.00000896;3814.61538372;4307.30769245;4270.51282059;4303.84615399;4662.17948809;4239.61538462;4201.15384609;4205.12820506
4203.20512814;4202.43589737;4373.20512849;4235.25641026;4399.87179522;2003.58973887;-0.00000896;-0.00000896;3814.10256320;4306.53846168;4303.33333348;4305.89743604;4562.56410326;4237.69230770;4176.02564089;4205.12820506
4203.58974352;4201.92307686;4238.33333334;4235.64102564;4306.53846168;2004.99999528;-0.00000896;-0.00000896;3813.71794782;4332.69230790;4236.66666667;4305.76923091;4471.28205177;4238.07692308;4201.28205122;4205.12820506
4204.74358968;4201.92307686;4628.84615468;4234.61538462;4628.97435981;2006.79486707;-0.00000896;-0.00000896;3812.82051192;4333.07692329;4365.64102592;4304.48717963;4727.69230874;4239.48717949;4176.02564089;4205.12820506
4204.23076917;4202.30769224;4269.74358982;4234.61538462;4367.43589772;2006.02563630;-0.00000896;-0.00000896;3814.23076833;4304.87179501;4301.02564117;4305.38461553;4502.17948774;4238.71794872;4201.15384609;4205.12820506
4203.97435891;4201.92307686;4400.51282086;4235.12820513;4466.53846203;2006.79486707;-0.00000896;-0.00000896;3841.28205045;4335.12820534;4241.41025641;4303.07692322;4565.25641096;4240.76923077;4201.28205122;4205.12820506
4202.94871788;4201.53846147;4303.71794886;4234.87179488;4398.07692343;2002.30768759;-0.00000896;-0.00000896;3841.79487096;4332.94871816;4240.64102564;4302.94871809;4499.35897492;4239.23076923;4176.15384602;4205.12820506
4203.58974352;4202.30769224;4269.74358982;4235.00000000;4404.48717984;2009.10255938;-0.00000896;-0.00000896;3813.97435807;4306.15384630;4136.66666646;4302.56410271;4464.48717998;4240.38461539;4201.41025634;4205.12820506
4203.97435891;4204.35897429;4405.25641061;4236.66666667;4564.48718019;2008.07691836;-0.00000896;-0.00000896;3813.84615295;4333.46153867;4535.89743653;4303.84615399;4635.51282135;4238.97435898;4204.61538455;4205.12820506
4204.99999993;4203.33333327;4271.53846161;4235.00000000;4400.51282086;2006.28204656;-0.00000896;-0.00000896;3840.76922994;4333.84615406;4142.43589723;4301.66666681;4465.89743639;4240.00000000;4202.17948711;4205.12820506
4204.23076917;4202.43589737;4370.64102592;4235.12820513;4438.71794914;2003.07691836;-0.00000896;-0.00000896;3840.89743507;4336.79487201;4240.25641026;4306.15384630;4531.92307755;4240.25641026;4201.15384609;4205.12820506
4204.10256404;4202.05128199;4339.74358996;4234.61538462;4435.51282093;2005.12820041;-0.00000896;-0.00000896;3842.05128122;4335.64102585;4206.66666660;4303.33333348;4502.17948774;4239.35897436;4201.02564096;4205.12820506
4204.74358968;4201.02564096;4173.58974345;4234.87179488;4269.10256418;2004.10255938;-0.00000896;-0.00000896;3814.23076833;4332.69230790;4270.51282059;4304.74358989;4470.51282100;4238.71794872;4203.20512814;4205.12820506
4204.48717942;4203.58974352;4566.15384685;4235.51282052;4635.12820597;2005.89743118;-0.00000896;-0.00000896;3812.94871705;4332.69230790;4306.41025655;4306.41025655;4760.51282163;4237.30769231;4201.15384609;4205.12820506
4204.87179481;4203.58974352;4202.17948711;4235.25641026;4334.87179508;2004.87179015;-0.00000896;-0.00000896;3814.35897346;4332.82051303;4304.35897450;4301.92307707;4471.53846203;4239.87179488;4175.89743576;4205.12820506
4205.38461532;4202.56410250;4269.48717956;4236.92307693;4368.33333362;2004.87179015;-0.00000896;-0.00000896;3814.35897346;4332.82051303;4238.33333334;4304.10256425;4497.30769287;4238.58974359;4176.28205115;4205.12820506
4206.15384609;4202.69230763;4241.02564103;4236.15384616;4333.46153867;2005.51281579;-0.00000896;-0.00000896;3815.25640936;4335.76923098;4201.53846147;4306.15384630;4496.92307748;4240.38461539;4203.58974352;4205.12820506
4204.99999993;4202.17948711;4369.23076951;4235.51282052;4501.53846210;1976.92307213;-0.00000896;-0.00000896;3840.12820430;4334.87179508;4369.74359003;4303.71794886;4595.38461615;4240.25641026;4201.79487173;4205.12820506
4204.74358968;4202.56410250;4267.69230777;4235.76923077;4306.28205142;2004.87179015;-0.00000896;-0.00000896;3814.48717859;4339.61538483;4370.38461567;4303.20512835;4597.69230846;4241.53846154;4201.41025634;4205.12820506
4205.64102558;4202.05128199;4433.97435940;4234.23076923;4565.89743660;2004.61537989;-0.00000896;-0.00000896;3814.48717859;4338.07692329;4241.02564103;4302.69230784;4504.35897492;4239.23076923;4173.84615371;4205.12820506
4204.35897429;4202.69230763;4306.15384630;4234.10256411;4366.15384644;2004.48717477;-0.00000896;-0.00000896;3840.38461455;4333.58974380;4334.10256431;4306.28205142;4496.41025697;4240.89743590;4201.41025634;4205.12820506
4203.97435891;4202.82051275;4204.35897429;4235.12820513;4334.10256431;2004.23076451;229.99999153;-0.00000896;3840.25640943;4332.94871816;4106.66666639;4306.28205142;4434.23076965;4240.38461539;4201.79487173;4205.12820506
4203.84615378;4202.82051275;4464.23076972;4235.51282052;4536.66666730;2004.74358502;229.99999153;-0.00000896;3814.99999910;4333.58974380;4433.33333375;4302.17948732;4661.41025732;4236.92307693;4201.02564096;4205.12820506
4204.10256404;4202.82051275;4271.79487187;4235.76923077;4339.35897457;2007.05127733;229.99999153;-0.00000896;3814.35897346;4336.79487201;4266.79487187;4304.23076937;4436.53846196;4239.74358975;4201.53846147;4205.12820506
4203.46153840;4201.92307686;4270.00000007;4235.89743590;4335.38461560;2009.74358502;229.99999153;-0.00000896;3814.35897346;4306.92307707;4335.25641047;4302.82051296;4563.20512890;4240.51282052;4201.28205122;4205.12820506
4203.46153840;4203.20512814;4269.48717956;4235.51282052;4334.87179508;2007.05127733;137.43588875;-0.00000896;3813.33333243;4332.30769252;4274.35897443;4303.97435912;4529.35897499;4238.71794872;4175.76923063;4205.12820506
4204.99999993;4203.20512814;4240.38461539;4236.53846154;4373.20512849;2004.23076451;134.23076055;-0.00000896;3814.48717859;4336.79487201;4108.84615357;4303.58974373;4401.92307727;4239.23076923;4201.28205122;4205.12820506
4204.61538455;4202.82051275;4434.10256452;4236.15384616;4536.92307755;2003.97435425;229.99999153;-0.00000896;3813.71794782;4334.23076944;4368.33333362;4304.48717963;4697.30769328;4239.61538462;4201.41025634;4205.12820506
4204.48717942;4203.07692301;4238.46153847;4235.25641026;4335.76923098;1976.66666188;134.23076055;-0.00000896;3813.97435807;4306.41025655;4172.94871781;4305.12820527;4536.28205191;4239.61538462;4201.79487173;4205.12820506
4204.74358968;4203.58974352;4367.30769259;4235.89743590;4436.92307734;1973.84614906;229.99999153;-0.00000896;3815.12820423;4307.30769245;4267.05128212;4301.92307707;4497.43589800;4239.74358975;4173.33333320;4205.12820506
4205.25641019;4201.53846147;4307.43589758;4235.76923077;4337.94871816;2004.48717477;134.23076055;-0.00000896;3840.12820430;4335.25641047;4235.76923077;4300.25641040;4502.82051338;4239.23076923;4176.28205115;4205.12820506
4204.87179481;4201.53846147;4235.76923077;4235.38461539;4400.25641061;2040.76922612;229.99999153;-0.00000896;3811.15384525;4306.66666681;4303.84615399;4302.94871809;4502.17948774;4238.33333334;4201.41025634;4205.12820506
4205.64102558;4202.30769224;4369.23076951;4236.02564103;4431.15384657;2036.15384150;134.23076055;-0.00000896;3813.58974269;4306.15384630;4304.74358989;4307.05128219;4628.20512904;4240.00000000;4174.99999986;4205.12820506
4205.76923070;4203.71794865;4304.87179501;4234.10256411;4436.66666709;2002.94871323;229.99999153;-0.00000896;3842.56410173;4332.94871816;4241.66666667;4303.07692322;4503.07692364;4240.25641026;4201.15384609;4205.12820506
4205.12820506;4204.48717942;4271.66666674;4234.61538462;4401.15384651;1970.76922598;134.23076055;-0.00000896;3844.23076840;4306.53846168;4299.87179501;4304.87179501;4534.10256473;4240.64102564;4201.15384609;4205.12820506
4203.97435891;4203.07692301;4173.97435884;4235.76923077;4299.61538476;1973.46153367;229.99999153;-0.00000896;3842.43589661;4307.17948732;4240.12820513;4304.35897450;4403.07692343;4240.51282052;4201.28205122;4205.12820506
4204.48717942;4202.05128199;4434.10256452;4236.02564103;4500.25641082;2003.20512348;134.23076055;-0.00000896;3815.12820423;4336.66666688;4301.66666681;4303.71794886;4662.56410347;4266.66666674;4201.28205122;4205.12820506
4205.25641019;4201.66666660;4365.25641054;4236.79487180;4433.84615427;2006.79486707;229.99999153;-0.00000896;3811.02564013;4335.64102585;4236.41025641;4303.07692322;4529.74359037;4239.61538462;4201.53846147;4205.12820506
4205.64102558;4202.69230763;4333.58974380;4236.15384616;4502.82051338;2006.15384143;134.23076055;-0.00000896;3809.99999910;4305.00000014;4271.02564110;4304.74358989;4499.87179543;4239.10256411;4201.53846147;4205.12820506
4205.64102558;4202.56410250;4332.69230790;4235.12820513;4370.89743618;2006.53845682;229.99999153;-0.00000896;3811.15384525;4335.12820534;4305.25641040;4304.74358989;4500.38461594;4238.97435898;4201.02564096;4205.12820506
4205.38461532;4201.53846147;4139.99999980;4235.76923077;4203.20512814;2007.94871323;134.23076055;-0.00000896;3812.56410166;4332.82051303;4207.56410250;4303.97435912;4436.41025683;4240.76923077;4175.89743576;4205.12820506
4206.28205122;4175.76923063;4437.43589786;4234.48717949;4566.79487249;2006.92307220;229.99999153;-0.00000896;3812.56410166;4305.89743604;4533.97435960;4303.33333348;4662.43589834;4239.61538462;4201.66666660;4205.12820506
4205.51282045;4202.17948711;4268.33333341;4235.00000000;4337.17948739;2007.56409784;134.23076055;-0.00000896;3813.33333243;4306.92307707;4168.46153833;4304.35897450;4436.53846196;4237.82051282;4201.41025634;4205.12820506
4206.02564096;4202.56410250;4337.94871816;4234.87179488;4436.53846196;2005.51281579;229.99999153;-0.00000896;3840.76922994;4335.12820534;4239.10256411;4304.10256425;4532.17948781;4238.46153847;4202.05128199;4205.12820506
4204.99999993;4203.20512814;4304.74358989;4234.10256411;4370.89743618;1977.30768752;134.23076055;-0.00000896;3841.92307609;4307.17948732;4238.84615385;4301.15384630;4500.25641082;4239.87179488;4201.28205122;4205.12820506
4203.97435891;4202.30769224;4206.41025634;4235.76923077;4367.43589772;2003.33332861;229.99999153;-0.00000896;3813.84615295;4333.71794893;4240.00000000;4304.74358989;4433.97435940;4240.38461539;4174.99999986;4205.12820506
4204.87179481;4203.33333327;4431.53846196;4235.64102564;4465.51282100;2007.69230297;134.23076055;-0.00000896;3810.12820423;4307.05128219;4433.71794914;4304.23076937;4600.00000077;4240.12820513;4201.41025634;4205.12820506
4204.74358968;4203.46153840;4234.10256411;4236.28205129;4305.25641040;2006.79486707;229.99999153;-0.00000896;3810.64102474;4305.12820527;4268.97435905;4304.35897450;4567.43589813;4239.61538462;4201.41025634;4205.12820506
4204.99999993;4202.05128199;4365.64102592;4234.87179488;4336.02564124;2004.23076451;134.23076055;-0.00000896;3812.69230679;4335.51282073;4274.10256418;4305.64102578;4529.87179550;4241.02564103;4201.15384609;4205.12820506
4205.12820506;4202.56410250;4274.10256418;4234.23076923;4398.46153881;2002.05127733;229.99999153;-0.00000896;3841.53846071;4335.64102585;4136.41025621;4306.28205142;4465.89743639;4239.87179488;4201.02564096;4205.12820506
4205.38461532;4201.92307686;4333.58974380;4233.97435898;4367.17948746;2004.23076451;134.23076055;-0.00000896;3841.28205045;4306.02564117;4304.23076937;4303.46153860;4600.25641102;4239.48717949;4201.41025634;4205.12820506
4204.23076917;4202.69230763;4366.02564131;4235.64102564;4463.97435946;2006.41025169;229.99999153;-0.00000896;3814.35897346;4306.15384630;4306.53846168;4304.61538476;4532.30769294;4239.35897436;4201.41025634;4205.12820506
4204.48717942;4203.20512814;4334.48717970;4234.74358975;4372.94871823;2003.97435425;134.23076055;-0.00000896;3813.58974269;4305.25641040;4267.17948725;4303.84615399;4504.10256466;4239.35897436;4176.02564089;4205.12820506
4204.99999993;4203.71794865;4333.20512842;4235.64102564;4431.02564145;2002.82050810;229.99999153;-0.00000896;3813.20512731;4304.10256425;4270.00000007;4304.48717963;4502.17948774;4239.10256411;4201.15384609;4205.12820506
4206.41025634;4201.92307686;4239.48717949;4235.89743590;4301.92307707;2003.46153374;133.84614516;-0.00000896;3812.94871705;4306.41025655;4140.76923056;4303.07692322;4503.84615441;4239.23076923;4201.53846147;4205.12820506
4206.02564096;4202.05128199;4497.82051338;4235.89743590;4666.41025732;2003.71794400;99.87178612;-0.00000896;3812.94871705;4336.15384637;4469.23076972;4304.74358989;4566.41025711;4241.02564103;4201.28205122;4205.12820506
4206.92307686;4202.05128199;4272.17948725;4236.92307693;4303.07692322;2009.87179015;8338.71795741;-0.00000896;3810.51281961;4302.94871809;4205.25641019;4306.53846168;4563.58974429;4238.84615385;4201.53846147;4205.12820506
4206.28205122;4203.58974352;4337.94871816;4235.00000000;4469.35897485;2036.53845689;229.99999153;-0.00000896;3813.20512731;4303.97435912;4206.28205122;4305.64102578;4466.28205177;4240.89743590;4201.15384609;4205.12820506
4205.12820506;4204.10256404;4273.46153853;4234.87179488;4398.33333368;2007.30768759;229.99999153;-0.00000896;3842.17948635;4274.74358982;4237.30769231;4304.35897450;4470.51282100;4239.48717949;4201.15384609;4205.12820506
4201.66666660;4205.12820506;4172.94871781;4209.10256404;4268.20512828;2009.74358502;229.99999153;-0.00000896;3845.25640943;4333.07692329;4169.61538448;4303.84615399;4467.82051331;4241.28205129;4201.28205122;4205.12820506
4201.79487173;4205.38461532;4565.51282121;4206.66666660;4601.79487256;2005.38461066;229.99999153;-0.00000896;3840.64102481;4332.82051303;4403.20512856;4303.58974373;4666.28205219;4238.71794872;4204.48717942;4205.12820506
4201.02564096;4205.64102558;4270.51282059;4234.10256411;4370.38461567;1976.92307213;-0.00000896;-0.00000896;3811.41025551;4337.05128226;4176.02564089;4306.28205142;4535.76923140;4240.89743590;4201.41025634;4205.12820506
4201.66666660;4206.53846147;4367.56410285;4235.00000000;4433.46153888;1976.41025162;-0.00000896;-0.00000896;3843.58974276;4339.23076944;4174.74358961;4303.58974373;4501.53846210;4238.07692308;4175.25641012;4205.12820506
4201.15384609;4204.87179481;4274.35897443;4208.46153840;4432.17948760;2002.56409784;-0.00000896;-0.00000896;3812.17948628;4365.76923105;4236.02564103;4305.64102578;4470.25641075;4240.51282052;4201.66666660;4205.12820506
4203.46153840;4203.33333327;4267.56410264;4208.71794865;4336.53846175;1973.71794393;-0.00000896;-0.00000896;3780.51281954;4367.56410285;4273.97435905;4304.10256425;4629.23077007;4239.35897436;4176.28205115;4205.12820506
4206.66666660;4175.12820499;4502.17948774;4233.97435898;4632.56410340;1976.02563623;-0.00000896;-0.00000896;3809.23076833;4339.23076944;4339.35897457;4303.58974373;4530.25641089;4240.00000000;4176.28205115;4205.12820506
4207.30769224;4173.58974345;4238.84615385;4208.20512814;4306.53846168;2002.56409784;-0.00000896;-0.00000896;3812.30769141;4337.56410278;4270.64102571;4304.87179501;4562.30769301;4239.74358975;4201.41025634;4205.12820506
4208.58974352;4172.30769217;4370.64102592;4209.10256404;4532.17948781;2004.35896964;-0.00000896;-0.00000896;3814.87179397;4333.97435919;4240.51282052;4305.00000014;4496.53846210;4238.84615385;4201.66666660;4205.12820506
4208.84615378;4172.05128192;4205.64102558;4208.84615378;4305.51282066;2006.66666195;-0.00000896;-0.00000896;3846.02564020;4337.17948739;4201.79487173;4307.05128219;4437.43589786;4239.61538462;4201.79487173;4205.12820506
4207.82051275;4172.69230756;4306.02564117;4234.87179488;4400.25641061;2008.33332861;-0.00000896;-0.00000896;3873.58974283;4302.17948732;4269.87179495;4303.58974373;4532.30769294;4239.35897436;4201.92307686;4205.12820506
4206.28205122;4174.48717935;4332.82051303;4235.25641026;4338.84615406;2006.66666195;-0.00000896;-0.00000896;3874.10256334;4307.30769245;4206.66666660;4305.38461553;4470.38461587;4238.97435898;4202.56410250;4205.12820506
4203.97435891;4175.38461525;4172.94871781;4235.64102564;4304.23076937;2007.69230297;-0.00000896;-0.00000896;3873.71794796;4301.15384630;4172.82051269;4304.61538476;4431.92307734;4239.35897436;4201.28205122;4205.12820506
4175.51282038;4175.89743576;4466.79487229;4237.69230770;4535.89743653;2039.61537996;-0.00000896;-0.00000896;3842.43589661;4299.48717963;4367.17948746;4304.74358989;4666.02564193;4239.35897436;4174.99999986;4172.30769217
4175.51282038;4202.94871788;4269.35897443;4235.76923077;4397.94871830;2038.71794407;-0.00000896;-0.00000896;3814.48717859;4305.00000014;4236.15384616;4303.07692322;4470.76923126;4241.53846154;4201.66666660;4172.30769217
4201.15384609;4204.61538455;4302.17948732;4236.41025641;4368.46153874;2005.51281579;-0.00000896;-0.00000896;3841.92307609;4307.56410271;4273.58974366;4304.74358989;4597.56410333;4239.61538462;4202.30769224;4205.12820506
4202.82051275;4205.89743583;4305.51282066;4236.41025641;4434.35897478;1977.17948239;-0.00000896;-0.00000896;3814.99999910;4333.46153867;4207.17948711;4304.35897450;4500.00000056;4237.69230770;4201.15384609;4205.12820506
4202.69230763;4204.87179481;4238.71794872;4237.30769231;4335.12820534;1972.30768752;-0.00000896;-0.00000896;3840.12820430;4333.20512842;4205.12820506;4302.56410271;4404.35897471;4241.92307693;4201.41025634;4205.12820506
4203.33333327;4203.84615378;4435.00000042;4237.43589744;4465.51282100;1975.51281572;-0.00000896;-0.00000896;3814.61538372;4336.79487201;4496.53846210;4302.30769245;4697.30769328;4241.15384616;4201.02564096;4205.12820506
4204.35897429;4202.56410250;4274.74358982;4237.17948718;4366.28205156;2002.17948246;-0.00000896;-0.00000896;3812.05128115;4337.43589765;4176.28205115;4305.00000014;4438.58974401;4239.35897436;4201.53846147;4205.12820506
4205.51282045;4201.66666660;4266.79487187;4237.30769231;4404.10256445;2004.87179015;-0.00000896;-0.00000896;3812.56410166;4332.69230790;4235.38461539;4304.10256425;4533.71794935;4239.35897436;4201.28205122;4205.12820506
4204.74358968;4202.56410250;4235.51282052;4238.20512821;4301.92307707;2006.15384143;-0.00000896;-0.00000896;3809.35897346;4338.71794893;4239.48717949;4304.74358989;4501.02564159;4240.51282052;4201.66666660;4205.12820506
4205.64102558;4202.43589737;4306.41025655;4237.30769231;4334.74358996;2006.66666195;-0.00000896;-0.00000896;3807.30769141;4304.48717963;4335.00000021;4302.30769245;4563.33333403;4240.12820513;4175.38461525;4205.12820506
4206.92307686;4202.05128199;4469.35897485;4236.28205129;4535.64102627;2007.69230297;-0.00000896;-0.00000896;3810.25640936;4306.28205142;4271.41025648;4305.38461553;4628.07692391;4239.35897436;4201.28205122;4205.12820506
4207.05128199;4202.30769224;4272.43589751;4236.28205129;4366.79487208;2006.92307220;-0.00000896;-0.00000896;3813.97435807;4306.79487194;4271.02564110;4306.15384630;4531.28205191;4240.12820513;4201.53846147;4205.12820506
4206.92307686;4201.79487173;4333.97435919;4234.74358975;4370.51282079;2006.28204656;-0.00000896;-0.00000896;3841.53846071;4334.23076944;4234.87179488;4304.74358989;4502.94871851;4241.15384616;4201.28205122;4205.12820506
4204.87179481;4203.58974352;4140.38461518;4236.02564103;4267.56410264;2005.64102092;-0.00000896;-0.00000896;3815.25640936;4304.74358989;4174.99999986;4303.33333348;4470.89743639;4238.71794872;4175.51282038;4205.12820506
4203.33333327;4203.33333327;4531.15384678;4235.64102564;4661.28205219;2002.05127733;229.99999153;-0.00000896;3841.53846071;4307.05128219;4371.02564131;4305.00000014;4595.64102641;4240.64102564;4176.02564089;4205.12820506
4203.71794865;4203.46153840;4235.25641026;4235.51282052;4303.33333348;2003.46153374;229.99999153;-0.00000896;3814.48717859;4334.48717970;4270.12820520;4303.84615399;4602.30769308;4239.35897436;4176.28205115;4205.12820506
4203.58974352;4203.84615378;4366.53846182;4237.69230770;4501.79487235;2008.71794400;229.99999153;-0.00000896;3810.25640936;4332.56410278;4332.56410278;4303.33333348;4438.58974401;4238.84615385;4176.28205115;4205.12820506
4204.23076917;4203.33333327;4304.10256425;4235.51282052;4405.12820548;2005.25640554;229.99999153;-0.00000896;3811.92307602;4332.94871816;4271.28205136;4303.58974373;4562.56410326;4240.89743590;4201.41025634;4205.12820506
4204.61538455;4203.07692301;4238.33333334;4237.30769231;4272.69230777;2002.43589271;103.97435022;-0.00000896;3814.10256320;4335.76923098;4104.10256383;4302.17948732;4431.28205170;4240.38461539;4176.15384602;4205.12820506
4204.48717942;4202.30769224;4470.76923126;4236.53846154;4600.51282128;2005.12820041;134.23076055;-0.00000896;3840.51281968;4307.30769245;4402.43589779;4305.76923091;4631.41025725;4240.25641026;4201.41025634;4205.12820506
4204.23076917;4201.41025634;4240.89743590;4235.64102564;4302.94871809;2004.23076451;229.99999153;-0.00000896;3842.94871712;4307.17948732;4204.23076917;4303.71794886;4431.53846196;4241.53846154;4176.28205115;4205.12820506
4203.84615378;4201.79487173;4306.92307707;4236.41025641;4435.38461581;2006.66666195;134.23076055;-0.00000896;3841.02564020;4305.76923091;4241.15384616;4306.66666681;4597.05128282;4238.97435898;4201.66666660;4205.12820506
4201.79487173;4176.02564089;4300.12820527;4237.94871795;4305.76923091;2005.51281579;229.99999153;-0.00000896;3842.94871712;4303.46153860;4268.33333341;4303.33333348;4565.51282121;4240.51282052;4175.51282038;4205.12820506
4201.66666660;4201.15384609;4272.56410264;4237.94871795;4433.71794914;2007.05127733;134.23076055;-0.00000896;3815.25640936;4304.87179501;4235.00000000;4304.87179501;4432.82051324;4240.00000000;4201.15384609;4205.12820506
4176.15384602;4202.05128199;4400.51282086;4239.87179488;4430.76923119;2006.53845682;229.99999153;-0.00000896;3810.89743500;4334.10256431;4403.97435933;4303.07692322;4699.10256508;4240.00000000;4201.28205122;4172.30769217
4175.38461525;4202.17948711;4304.74358989;4238.33333334;4465.12820562;2003.97435425;134.23076055;-0.00000896;3809.61538372;4306.41025655;4207.17948711;4303.46153860;4403.33333368;4239.48717949;4201.02564096;4172.30769217
4202.43589737;4202.43589737;4334.87179508;4238.20512821;4338.71794893;2002.56409784;229.99999153;-0.00000896;3810.12820423;4334.48717970;4303.58974373;4305.89743604;4503.97435953;4238.84615385;4175.64102551;4205.12820506
4201.66666660;4202.56410250;4206.66666660;4237.17948718;4339.23076944;2003.97435425;134.23076055;-0.00000896;3808.58974269;4337.05128226;4208.07692301;4304.61538476;4438.33333375;4240.25641026;4201.15384609;4205.12820506
4203.97435891;4202.94871788;4531.92307755;4236.92307693;4562.17948788;2004.74358502;229.99999153;-0.00000896;3807.82051192;4305.38461553;4235.64102564;4304.87179501;4635.76923161;4238.20512821;4174.99999986;4205.12820506
4204.87179481;4202.69230763;4239.48717949;4236.66666667;4405.64102599;2003.71794400;134.23076055;-0.00000896;3808.84615295;4333.71794893;4436.15384657;4306.53846168;4498.07692364;4240.51282052;4201.28205122;4205.12820506
4205.38461532;4201.66666660;4433.46153888;4236.15384616;4531.15384678;2005.64102092;229.99999153;-0.00000896;3781.28205031;4332.56410278;4142.56410236;4302.17948732;4566.53846224;4240.64102564;4201.53846147;4205.12820506
4207.30769224;4176.28205115;4299.48717963;4235.38461539;4339.74358996;2004.10255938;134.23076055;-0.00000896;3809.48717859;4334.23076944;4370.00000028;4304.35897450;4529.23076986;4240.12820513;4201.41025634;4205.12820506
4207.94871788;4176.15384602;4238.46153847;4235.38461539;4400.38461574;2004.48717477;229.99999153;-0.00000896;3809.99999910;4335.25641047;4143.46153826;4303.84615399;4405.64102599;4240.51282052;4201.15384609;4205.12820506
4208.71794865;4201.79487173;4503.33333389;4236.15384616;4600.12820590;2005.51281579;134.23076055;-0.00000896;3811.28205038;4305.89743604;4366.41025669;4303.46153860;4694.61538559;4240.76923077;4203.20512814;4205.12820506
4208.46153840;4201.53846147;4268.20512828;4235.12820513;4338.97435919;2004.74358502;229.99999153;-0.00000896;3813.33333243;4305.25641040;4238.20512821;4303.84615399;4500.12820569;4239.48717949;4201.15384609;4205.12820506
4207.56410250;4176.15384602;4368.46153874;4236.15384616;4466.28205177;2007.82050810;134.23076055;-0.00000896;3813.20512731;4305.64102578;4202.05128199;4305.89743604;4504.23076979;4241.66666667;4201.66666660;4205.12820506
4207.56410250;4201.92307686;4240.12820513;4234.10256411;4338.97435919;2009.48717477;229.99999153;-0.00000896;3811.79487090;4305.25641040;4274.35897443;4304.87179501;4499.87179543;4241.02564103;4201.15384609;4205.12820506
4206.15384609;4203.33333327;4268.71794879;4235.00000000;4274.61538469;2005.38461066;134.23076055;-0.00000896;3811.41025551;4307.17948732;4108.58974332;4303.58974373;4470.89743639;4238.46153847;4201.15384609;4205.12820506
4205.89743583;4202.82051275;4434.61538504;4235.38461539;4537.30769294;2005.76922605;229.99999153;-0.00000896;3812.05128115;4305.25641040;4432.69230811;4303.84615399;4666.53846245;4239.74358975;4201.02564096;4205.12820506
4206.66666660;4203.20512814;4305.38461553;4235.51282052;4398.33333368;2006.66666195;134.23076055;-0.00000896;3814.74358884;4334.61538483;4208.07692301;4306.15384630;4466.79487229;4240.89743590;4201.28205122;4205.12820506
4206.79487173;4202.82051275;4365.76923105;4236.41025641;4432.56410298;2004.99999528;229.99999153;-0.00000896;3839.99999917;4333.58974380;4205.64102558;4304.61538476;4534.23076986;4238.84615385;4201.28205122;4205.12820506
4205.89743583;4201.79487173;4271.28205136;4235.89743590;4405.12820548;2004.99999528;134.23076055;-0.00000896;3840.51281968;4335.51282073;4240.25641026;4304.23076937;4499.74359030;4240.00000000;4203.33333327;4205.12820506
4203.20512814;4201.41025634;4302.17948732;4236.15384616;4368.46153874;2035.25640560;229.99999153;-0.00000896;3811.02564013;4303.07692322;4238.84615385;4303.46153860;4660.76923168;4238.33333334;4201.41025634;4205.12820506
4203.07692301;4202.82051275;4465.51282100;4235.76923077;4596.02564179;2007.05127733;134.23076055;-0.00000896;3811.66666577;4307.30769245;4402.69230804;4304.48717963;4534.10256473;4241.02564103;4201.53846147;4205.12820506
4204.10256404;4202.69230763;4272.43589751;4235.38461539;4338.71794893;2003.07691836;229.99999153;-0.00000896;3810.89743500;4306.53846168;4207.43589737;4301.53846168;4629.10256494;4239.61538462;4175.76923063;4205.12820506
4204.10256404;4202.05128199;4301.66666681;4235.76923077;4401.28205163;2009.87179015;134.23076055;-0.00000896;3808.58974269;4335.12820534;4366.15384644;4303.46153860;4501.79487235;4239.10256411;4201.28205122;4205.12820506
4204.61538455;4203.46153840;4332.43589765;4236.15384616;4433.07692350;2035.38461073;229.99999153;-0.00000896;3808.71794782;4307.05128219;4138.46153826;4303.58974373;4404.87179522;4239.74358975;4201.41025634;4205.12820506
4205.64102558;4204.61538455;4432.82051324;4235.51282052;4468.33333382;2003.07691836;8241.66667515;-0.00000896;3813.97435807;4305.51282066;4339.23076944;4302.43589758;4665.89743680;4240.38461539;4176.28205115;4205.12820506
4205.25641019;4203.33333327;4307.43589758;4236.02564103;4464.87179536;1973.46153367;8212.82052123;-0.00000896;3814.35897346;4302.56410271;4239.10256411;4303.46153860;4496.79487235;4239.48717949;4175.38461525;4205.12820506
4204.48717942;4201.79487173;4305.12820527;4235.64102564;4431.53846196;1973.07691829;104.48717074;-0.00000896;3814.87179397;4339.23076944;4238.58974359;4302.94871809;4562.82051352;4238.07692308;4201.15384609;4205.12820506
4204.74358968;4175.76923063;4303.97435912;4235.38461539;4366.15384644;2005.51281579;229.99999153;-0.00000896;3809.23076833;4307.17948732;4203.20512814;4305.76923091;4465.89743639;4240.25641026;4201.41025634;4205.12820506
4203.84615378;4201.66666660;4240.38461539;4236.53846154;4335.89743611;2006.15384143;229.99999153;-0.00000896;3782.30769134;4303.97435912;4201.79487173;4301.79487194;4470.38461587;4239.74358975;4201.41025634;4205.12820506
4206.15384609;4201.66666660;4468.97435946;4234.48717949;4529.87179550;2003.71794400;229.99999153;-0.00000896;3808.07692218;4332.94871816;4403.46153881;4303.33333348;4761.15384727;4238.71794872;4175.89743576;4205.12820506
4206.41025634;4176.28205115;4241.28205129;4235.38461539;4304.61538476;2004.61537989;229.99999153;-0.00000896;3810.76922987;4305.25641040;4300.89743604;4304.23076937;4471.15384664;4239.48717949;4176.28205115;4205.12820506
4204.48717942;4202.82051275;4300.76923091;4236.02564103;4366.28205156;2035.12820048;-0.00000896;-0.00000896;3809.10256320;4302.43589758;4235.25641026;4304.10256425;4595.12820590;4239.74358975;4176.28205115;4205.12820506
4205.12820506;4202.56410250;4300.12820527;4234.10256411;4402.94871830;2004.61537989;-0.00000896;-0.00000896;3810.89743500;4301.41025655;4240.38461539;4302.43589758;4503.58974415;4241.28205129;4202.05128199;4205.12820506
4205.76923070;4201.79487173;4306.79487194;4208.84615378;4435.00000042;2009.23076451;-0.00000896;-0.00000896;3812.43589654;4307.56410271;4172.05128192;4304.10256425;4471.28205177;4239.87179488;4201.41025634;4205.12820506
4204.99999993;4202.82051275;4399.87179522;4208.71794865;4532.05128268;2006.53845682;-0.00000896;-0.00000896;3812.56410166;4304.35897450;4403.33333368;4304.23076937;4664.10256501;4239.48717949;4202.30769224;4205.12820506
4204.48717942;4203.46153840;4304.61538476;4208.46153840;4400.51282086;2007.17948246;-0.00000896;-0.00000896;3813.33333243;4307.17948732;4206.79487173;4303.20512835;4496.53846210;4240.25641026;4176.02564089;4205.12820506
4203.84615378;4203.97435891;4303.33333348;4234.48717949;4367.05128233;2005.89743118;-0.00000896;-0.00000896;3814.87179397;4304.87179501;4240.38461539;4305.89743604;4532.43589807;4240.25641026;4201.28205122;4205.12820506
4203.71794865;4203.58974352;4273.84615392;4234.87179488;4304.74358989;2003.71794400;-0.00000896;-0.00000896;3813.84615295;4333.46153867;4266.66666674;4304.10256425;4465.25641075;4240.76923077;4201.15384609;4205.12820506
4203.20512814;4202.69230763;4370.76923105;4236.02564103;4466.79487229;2008.20512348;-0.00000896;-0.00000896;3811.41025551;4305.64102578;4271.02564110;4302.82051296;4729.61538566;4240.89743590;4175.12820499;4205.12820506
4204.61538455;4203.84615378;4432.43589786;4236.28205129;4534.74359037;2036.15384150;-0.00000896;-0.00000896;3812.82051192;4333.84615406;4269.23076930;4306.53846168;4535.64102627;4241.15384616;4201.02564096;4205.12820506
4204.48717942;4204.48717942;4332.82051303;4236.53846154;4336.92307714;2010.12820041;-0.00000896;-0.00000896;3812.43589654;4306.79487194;4238.33333334;4303.07692322;4563.33333403;4239.35897436;4201.28205122;4205.12820506
4205.64102558;4203.84615378;4305.25641040;4237.05128206;4371.02564131;2005.12820041;-0.00000896;-0.00000896;3841.79487096;4335.00000021;4271.53846161;4302.30769245;4502.69230825;4238.33333334;4201.66666660;4205.12820506
4202.94871788;4203.58974352;4270.25641033;4237.56410257;4303.71794886;2009.74358502;-0.00000896;-0.00000896;3814.10256320;4334.61538483;4108.20512793;4301.15384630;4465.64102613;4241.41025641;4203.97435891;4205.12820506
4202.56410250;4202.43589737;4435.38461581;4236.28205129;4533.84615448;2005.89743118;-0.00000896;-0.00000896;3809.74358884;4302.30769245;4530.25641089;4332.56410278;4599.74359051;4240.76923077;4203.58974352;4205.12820506
4202.30769224;4203.07692301;4299.74358989;4235.89743590;4332.82051303;2004.10255938;-0.00000896;-0.00000896;3809.87179397;4302.56410271;4236.15384616;4302.30769245;4567.82051352;4240.25641026;4201.02564096;4205.12820506
4203.33333327;4203.20512814;4366.02564131;4236.53846154;4497.30769287;2002.17948246;-0.00000896;-0.00000896;3809.10256320;4305.38461553;4206.66666660;4305.38461553;4496.79487235;4239.35897436;4201.15384609;4205.12820506
4203.71794865;4203.84615378;4300.89743604;4235.76923077;4399.10256445;1976.53845675;-0.00000896;-0.00000896;3809.48717859;4334.74358996;4203.97435891;4302.30769245;4465.76923126;4239.35897436;4201.15384609;4205.12820506
4204.23076917;4203.33333327;4168.33333320;4237.43589744;4241.15384616;2005.38461066;-0.00000896;-0.00000896;3780.25640929;4334.61538483;4207.05128199;4302.94871809;4434.74359016;4239.74358975;4175.12820499;4205.12820506
4206.15384609;4202.94871788;4498.58974415;4236.15384616;4501.92307748;2008.58973887;-0.00000896;-0.00000896;3778.84615288;4306.92307707;4370.64102592;4302.69230784;4792.30769349;4240.38461539;4201.02564096;4205.12820506
4207.05128199;4203.58974352;4333.97435919;4234.61538462;4436.41025683;2003.84614912;-0.00000896;-0.00000896;3807.30769141;4305.12820527;4271.02564110;4304.23076937;4399.23076958;4240.38461539;4168.20512807;4205.12820506
4206.15384609;4202.69230763;4333.97435919;4234.23076923;4338.46153867;2002.30768759;-0.00000896;-0.00000896;3810.89743500;4304.10256425;4238.97435898;4303.20512835;4630.00000084;4241.02564103;4201.41025634;4205.12820506
4207.69230763;4202.43589737;4270.89743597;4208.07692301;4402.05128240;2004.10255938;-0.00000896;-0.00000896;3813.84615295;4333.33333355;4238.71794872;4303.33333348;4437.69230811;4239.48717949;4201.15384609;4205.12820506
4206.28205122;4202.69230763;4337.05128226;4234.10256411;4464.10256459;1977.30768752;-0.00000896;-0.00000896;3847.30769148;4335.25641047;4267.82051289;4302.94871809;4497.82051338;4239.74358975;4201.41025634;4205.12820506
4204.87179481;4203.33333327;4404.10256445;4235.25641026;4436.66666709;2003.33332861;-0.00000896;-0.00000896;3841.92307609;4335.38461560;4337.69230790;4306.79487194;4664.10256501;4238.58974359;4176.02564089;4205.12820506
4204.23076917;4204.23076917;4304.23076937;4235.89743590;4465.00000049;2008.33332861;-0.00000896;-0.00000896;3840.12820430;4337.43589765;4238.20512821;4303.33333348;4468.71794921;4238.97435898;4202.56410250;4205.12820506
4201.92307686;4203.20512814;4272.69230777;4236.02564103;4337.94871816;2035.25640560;229.99999153;-0.00000896;3812.69230679;4333.07692329;4301.02564117;4303.07692322;4563.97435967;4238.97435898;4201.02564096;4205.12820506
4201.92307686;4203.46153840;4240.00000000;4235.76923077;4335.76923098;2007.43589271;136.79486311;-0.00000896;3810.51281961;4305.00000014;4205.25641019;4302.05128219;4405.00000035;4241.15384616;4202.94871788;4205.12820506
4202.82051275;4204.23076917;4467.05128254;4234.35897436;4532.82051345;2006.41025169;138.07691439;-0.00000896;3810.89743500;4334.74358996;4301.15384630;4303.46153860;4763.84615496;4240.38461539;4201.15384609;4205.12820506
4202.69230763;4203.97435891;4366.92307720;4235.89743590;4471.28205177;2003.97435425;133.20511952;-0.00000896;3810.38461449;4338.20512842;4239.10256411;4303.84615399;4467.30769280;4241.79487180;4202.05128199;4205.12820506
4203.20512814;4203.84615378;4333.20512842;4235.64102564;4371.66666695;2005.76922605;229.99999153;-0.00000896;3809.35897346;4338.71794893;4304.35897450;4302.82051296;4563.07692378;4238.97435898;4201.15384609;4205.12820506
4203.84615378;4204.23076917;4268.46153853;4236.53846154;4335.38461560;2006.79486707;229.99999153;-0.00000896;3781.92307595;4335.38461560;4303.71794886;4304.23076937;4498.46153902;4240.12820513;4201.41025634;4205.12820506
4205.76923070;4202.56410250;4241.02564103;4236.28205129;4304.35897450;2004.48717477;229.99999153;-0.00000896;3808.58974269;4336.79487201;4141.41025621;4303.58974373;4466.92307741;4266.79487187;4201.28205122;4205.12820506
4205.38461532;4201.66666660;4532.56410319;4235.25641026;4601.92307769;2006.41025169;229.99999153;-0.00000896;3809.99999910;4333.46153867;4339.35897457;4303.84615399;4661.79487270;4239.87179488;4201.28205122;4205.12820506
4206.92307686;4176.15384602;4240.89743590;4235.89743590;4340.00000021;2005.64102092;229.99999153;-0.00000896;3810.12820423;4300.76923091;4239.48717949;4302.69230784;4438.71794914;4239.61538462;4176.02564089;4205.12820506
4206.53846147;4201.02564096;4304.61538476;4236.79487180;4335.25641047;2009.99999528;229.99999153;-0.00000896;3811.79487090;4304.74358989;4337.94871816;4302.94871809;4537.05128268;4241.02564103;4201.02564096;4205.12820506
4206.79487173;4175.12820499;4241.53846154;4235.38461539;4306.15384630;2007.43589271;229.99999153;-0.00000896;3813.97435807;4307.05128219;4274.48717956;4305.51282066;4531.41025704;4240.51282052;4201.66666660;4205.12820506
4204.61538455;4202.56410250;4300.38461553;4235.38461539;4371.79487208;2007.94871323;229.99999153;-0.00000896;3812.17948628;4304.87179501;4170.25641012;4303.33333348;4469.10256459;4239.87179488;4201.41025634;4205.12820506
4204.74358968;4202.82051275;4434.87179529;4234.74358975;4497.30769287;2006.92307220;229.99999153;-0.00000896;3810.51281961;4303.84615399;4403.20512856;4302.56410271;4660.76923168;4240.25641026;4201.79487173;4205.12820506
4204.74358968;4202.43589737;4332.56410278;4234.48717949;4404.74359009;2003.07691836;229.99999153;-0.00000896;3811.41025551;4305.12820527;4238.33333334;4304.61538476;4500.25641082;4239.23076923;4201.66666660;4205.12820506
4203.20512814;4203.20512814;4305.12820527;4235.89743590;4401.28205163;1976.53845675;229.99999153;-0.00000896;3813.46153756;4335.12820534;4206.79487173;4304.10256425;4534.48718012;4240.76923077;4201.41025634;4205.12820506
4202.94871788;4203.58974352;4272.05128212;4235.38461539;4334.74358996;2004.99999528;229.99999153;-0.00000896;3812.82051192;4333.71794893;4233.84615385;4306.15384630;4434.61538504;4240.12820513;4201.02564096;4205.12820506
4203.84615378;4202.17948711;4370.38461567;4236.66666667;4463.97435946;2006.66666195;229.99999153;-0.00000896;3807.43589654;4305.12820527;4268.07692315;4304.74358989;4695.25641123;4240.38461539;4201.28205122;4205.12820506
4204.74358968;4203.97435891;4435.89743632;4235.76923077;4595.51282128;2008.07691836;229.99999153;-0.00000896;3780.38461442;4303.71794886;4268.71794879;4306.53846168;4563.20512890;4241.02564103;4201.66666660;4205.12820506
4204.99999993;4205.12820506;4301.79487194;4234.61538462;4334.10256431;2004.23076451;229.99999153;-0.00000896;3808.46153756;4305.89743604;4268.58974366;4302.43589758;4598.58974436;4239.10256411;4201.79487173;4205.12820506
4205.51282045;4203.20512814;4404.61538497;4235.51282052;4435.64102606;1973.84614906;229.99999153;-0.00000896;3812.30769141;4338.58974380;4270.76923084;4302.82051296;4565.25641096;4241.92307693;4201.53846147;4205.12820506
4205.89743583;4202.05128199;4235.38461539;4234.10256411;4305.64102578;1977.05127726;229.99999153;-0.00000896;3812.17948628;4332.94871816;4169.23076910;4303.20512835;4431.41025683;4241.66666667;4201.66666660;4205.12820506
4204.87179481;4201.28205122;4498.46153902;4235.25641026;4596.41025718;2002.69230297;229.99999153;-0.00000896;3809.74358884;4333.97435919;4469.74359023;4304.61538476;4631.79487263;4240.38461539;4201.41025634;4205.12820506
4206.53846147;4176.28205115;4267.43589751;4235.51282052;4304.87179501;2006.92307220;229.99999153;-0.00000896;3808.33333243;4333.58974380;4238.58974359;4304.35897450;4568.84615454;4239.87179488;4201.02564096;4205.12820506
4205.64102558;4202.05128199;4398.33333368;4235.76923077;4531.66666730;2006.15384143;229.99999153;-0.00000896;3808.71794782;4333.20512842;4209.10256404;4304.87179501;4530.89743653;4240.64102564;4172.30769217;4205.12820506
4206.53846147;4201.92307686;4274.35897443;4235.38461539;4366.02564131;2006.15384143;229.99999153;-0.00000896;3809.10256320;4302.43589758;4241.66666667;4305.12820527;4533.58974422;4239.35897436;4176.28205115;4205.12820506
4204.61538455;4202.94871788;4207.69230763;4236.53846154;4270.64102571;2004.48717477;229.99999153;-0.00000896;3809.10256320;4304.10256425;4141.79487159;4305.25641040;4468.58974408;4238.97435898;4201.41025634;4205.12820506
4206.41025634;4176.28205115;4432.43589786;4234.35897436;4499.23076979;2008.46153374;229.99999153;-0.00000896;3809.61538372;4333.07692329;4373.20512849;4301.92307707;4766.41025753;4239.23076923;4201.15384609;4205.12820506
4205.51282045;4203.20512814;4336.28205149;4234.23076923;4496.41025697;2009.23076451;229.99999153;-0.00000896;3810.89743500;4303.07692322;4240.64102564;4305.76923091;4430.89743632;4240.51282052;4175.64102551;4205.12820506
4205.51282045;4202.69230763;4266.92307700;4207.43589737;4335.76923098;2009.10255938;229.99999153;-0.00000896;3813.97435807;4335.38461560;4270.38461546;4302.17948732;4565.89743660;4241.28205129;4201.02564096;4205.12820506
4204.23076917;4203.97435891;4332.30769252;4208.71794865;4399.87179522;2005.38461066;229.99999153;-0.00000896;3813.07692218;4305.38461553;4270.38461546;4303.33333348;4470.12820562;4240.76923077;4175.76923063;4205.12820506
4203.58974352;4204.35897429;4306.41025655;4234.74358975;4431.15384657;2006.02563630;229.99999153;-0.00000896;3812.94871705;4306.15384630;4273.07692315;4300.12820527;4531.66666730;4240.51282052;4201.28205122;4205.12820506
4203.46153840;4204.23076917;4432.30769273;4234.48717949;4464.23076972;2002.56409784;229.99999153;-0.00000896;3813.84615295;4338.20512842;4336.41025662;4302.69230784;4600.51282128;4241.28205129;4201.28205122;4205.12820506
4202.94871788;4203.33333327;4337.56410278;4234.87179488;4404.74359009;2006.28204656;229.99999153;-0.00000896;3809.10256320;4332.30769252;4268.20512828;4304.23076937;4565.00000070;4239.74358975;4201.66666660;4205.12820506
4203.84615378;4203.46153840;4365.51282079;4237.17948718;4466.15384664;2007.43589271;229.99999153;-0.00000896;3808.97435807;4333.07692329;4241.28205129;4304.10256425;4468.97435946;4240.38461539;4201.15384609;4205.12820506
4205.51282045;4202.17948711;4272.17948725;4235.76923077;4337.94871816;2004.10255938;229.99999153;-0.00000896;3809.48717859;4333.33333355;4233.84615385;4304.74358989;4464.61538511;4240.25641026;4201.66666660;4205.12820506
4205.64102558;4203.20512814;4432.94871837;4235.38461539;4496.41025697;2005.64102092;229.99999153;-0.00000896;3813.84615295;4333.58974380;4370.25641054;4304.10256425;4698.97435995;4241.02564103;4201.66666660;4205.12820506
4205.76923070;4201.53846147;4371.41025669;4235.51282052;4502.69230825;2007.82050810;229.99999153;-0.00000896;3812.30769141;4304.35897450;4239.87179488;4302.05128219;4532.17948781;4238.20512821;4176.28205115;4205.12820506
4205.51282045;4202.56410250;4301.28205142;4234.74358975;4401.79487215;2003.58973887;8244.35898284;-0.00000896;3813.33333243;4332.43589765;4208.33333327;4304.74358989;4566.02564172;4239.74358975;4201.41025634;4205.12820506
4205.38461532;4202.82051275;4301.15384630;4236.92307693;4369.74359003;2004.10255938;8240.51282899;-0.00000896;3814.35897346;4306.53846168;4207.17948711;4304.87179501;4465.89743639;4267.17948725;4201.28205122;4205.12820506
4205.38461532;4202.69230763;4271.02564110;4236.28205129;4337.82051303;2005.76922605;229.99999153;-0.00000896;3814.10256320;4333.20512842;4139.10256390;4303.33333348;4500.51282107;4241.28205129;4201.28205122;4205.12820506
4205.64102558;4204.10256404;4467.82051331;4236.79487180;4532.05128268;2005.38461066;8240.51282899;-0.00000896;3811.15384525;4305.25641040;4405.00000035;4305.89743604;4694.87179585;4241.15384616;4201.15384609;4205.12820506
4204.74358968;4203.46153840;4335.00000021;4236.41025641;4466.79487229;2003.20512348;-0.00000896;-0.00000896;3808.58974269;4301.66666681;4170.12820499;4304.48717963;4498.33333389;4240.89743590;4176.28205115;4205.12820506
4205.76923070;4202.30769224;4272.69230777;4234.61538462;4337.56410278;2006.41025169;-0.00000896;-0.00000896;3807.69230679;4303.20512835;4366.28205156;4303.07692322;4562.56410326;4241.66666667;4202.43589737;4205.12820506
4205.12820506;4203.07692301;4334.35897457;4235.64102564;4338.07692329;2008.46153374;-0.00000896;-0.00000896;3782.17948621;4305.00000014;4274.10256418;4303.33333348;4499.35897492;4239.87179488;4201.28205122;4205.12820506
4204.61538455;4201.92307686;4338.71794893;4235.12820513;4466.02564152;2006.28204656;-0.00000896;-0.00000896;3808.46153756;4306.28205142;4139.48717928;4302.56410271;4496.41025697;4240.89743590;4202.69230763;4205.12820506
4205.76923070;4204.23076917;4400.00000035;4234.10256411;4404.87179522;2005.12820041;-0.00000896;-0.00000896;3810.89743500;4334.74358996;4464.10256459;4302.82051296;4730.89743694;4241.02564103;4175.25641012;4205.12820506
4205.64102558;4203.20512814;4369.35897464;4233.84615385;4533.71794935;2006.79486707;-0.00000896;-0.00000896;3810.51281961;4333.20512842;4207.30769224;4302.94871809;4401.92307727;4240.12820513;4201.41025634;4205.12820506
4205.89743583;4202.94871788;4307.56410271;4234.10256411;4397.94871830;2003.46153374;-0.00000896;-0.00000896;3809.23076833;4335.64102585;4269.87179495;4303.20512835;4534.48718012;4240.12820513;4203.58974352;4205.12820506
4206.02564096;4202.43589737;4266.79487187;4233.97435898;4338.20512842;2002.17948246;-0.00000896;-0.00000896;3810.76922987;4307.30769245;4202.17948711;4301.79487194;4468.07692357;4239.23076923;4176.28205115;4205.12820506
4205.25641019;4203.07692301;4438.07692350;4234.23076923;4438.07692350;2004.48717477;-0.00000896;-0.00000896;3812.69230679;4306.66666681;4273.07692315;4304.10256425;4630.38461622;4240.89743590;4201.28205122;4205.12820506
4204.99999993;4203.07692301;4431.79487222;4209.10256404;4567.69230839;2006.79486707;-0.00000896;-0.00000896;3812.69230679;4337.30769252;4339.23076944;4302.05128219;4466.53846203;4238.84615385;4201.28205122;4205.12820506
4203.46153840;4203.33333327;4336.66666688;4234.87179488;4371.28205156;2007.56409784;-0.00000896;-0.00000896;3812.17948628;4305.64102578;4208.58974352;4302.94871809;4632.17948802;4239.35897436;4173.97435884;4205.12820506
4203.84615378;4203.46153840;4397.94871830;4234.35897436;4470.76923126;2005.89743118;-0.00000896;-0.00000896;3811.79487090;4305.38461553;4207.82051275;4304.10256425;4534.35897499;4241.66666667;4201.28205122;4205.12820506
4204.99999993;4203.58974352;4204.35897429;4234.48717949;4303.07692322;2004.74358502;-0.00000896;-0.00000896;3812.82051192;4336.92307714;4173.07692294;4305.76923091;4432.43589786;4267.43589751;4201.02564096;4205.12820506
4202.82051275;4203.84615378;4497.69230825;4236.41025641;4531.66666730;2005.89743118;-0.00000896;-0.00000896;3812.94871705;4306.53846168;4365.51282079;4307.30769245;4697.17948816;4239.87179488;4201.15384609;4205.12820506
4203.46153840;4202.82051275;4303.07692322;4236.15384616;4340.38461560;2002.17948246;-0.00000896;-0.00000896;3813.71794782;4338.07692329;4239.74358975;4304.35897450;4466.92307741;4240.76923077;4174.61538448;4205.12820506
4203.07692301;4203.20512814;4333.97435919;4236.15384616;4431.53846196;2004.61537989;-0.00000896;-0.00000896;3811.02564013;4333.58974380;4237.05128206;4305.00000014;4595.25641102;4266.92307700;4202.69230763;4205.12820506
4203.07692301;4202.05128199;4307.17948732;4236.41025641;4370.64102592;2005.51281579;-0.00000896;-0.00000896;3809.61538372;4306.02564117;4236.92307693;4303.84615399;4536.02564165;4240.89743590;4201.02564096;4205.12820506
4203.58974352;4176.28205115;4170.38461525;4236.28205129;4269.10256418;2005.25640554;-0.00000896;-0.00000896;3807.30769141;4305.51282066;4201.02564096;4306.02564117;4465.38461587;4240.51282052;4175.64102551;4205.12820506
4203.58974352;4202.43589737;4471.15384664;4235.25641026;4562.17948788;2004.74358502;-0.00000896;-0.00000896;3808.97435807;4332.69230790;4404.35897471;4302.17948732;4731.79487284;4240.76923077;4201.41025634;4205.12820506
4204.74358968;4201.28205122;4301.15384630;4236.15384616;4305.38461553;2009.10255938;-0.00000896;-0.00000896;3810.64102474;4304.61538476;4203.71794865;4305.89743604;4496.41025697;4240.00000000;4173.71794858;4205.12820506
4204.61538455;4202.17948711;4302.17948732;4235.25641026;4371.53846182;2008.33332861;-0.00000896;-0.00000896;3809.61538372;4307.43589758;4240.89743590;4301.02564117;4532.69230832;4240.89743590;4201.41025634;4205.12820506
4205.38461532;4202.82051275;4304.74358989;4235.89743590;4398.46153881;2005.89743118;-0.00000896;-0.00000896;3811.41025551;4305.89743604;4235.38461539;4304.23076937;4470.76923126;4267.43589751;4201.41025634;4205.12820506
4204.74358968;4203.20512814;4269.35897443;4235.76923077;4305.89743604;2007.05127733;-0.00000896;-0.00000896;3810.51281961;4306.66666681;4304.10256425;4304.74358989;4533.84615448;4240.00000000;4201.02564096;4205.12820506
4205.89743583;4203.84615378;4530.38461601;4235.89743590;4599.87179564;2002.82050810;-0.00000896;-0.00000896;3812.17948628;4304.48717963;4333.20512842;4302.82051296;4599.74359051;4240.76923077;4201.28205122;4205.12820506
4206.02564096;4202.69230763;4268.71794879;4236.79487180;4334.23076944;1976.53845675;229.99999153;-0.00000896;3812.56410166;4303.46153860;4238.20512821;4305.89743604;4629.10256494;4239.87179488;4201.28205122;4205.12820506
4205.25641019;4202.30769224;4371.28205156;4237.05128206;4436.41025683;2034.99999535;229.99999153;-0.00000896;3782.17948621;4304.74358989;4302.94871809;4301.28205142;4535.12820576;4240.38461539;4201.15384609;4205.12820506
4204.99999993;4202.82051275;4299.74358989;4234.61538462;4398.46153881;2008.58973887;229.99999153;-0.00000896;3807.43589654;4335.89743611;4169.35897422;4302.30769245;4465.51282100;4240.51282052;4201.41025634;4205.12820506
4205.89743583;4203.71794865;4402.94871830;4235.12820513;4431.79487222;2007.69230297;229.99999153;-0.00000896;3811.28205038;4306.28205142;4433.33333375;4303.84615399;4666.28205219;4241.41025641;4201.41025634;4205.12820506
4206.92307686;4202.82051275;4400.00000035;4234.87179488;4471.15384664;1976.15384136;8276.28205983;-0.00000896;3813.20512731;4332.94871816;4206.28205122;4303.33333348;4532.69230832;4241.79487180;4202.56410250;4205.12820506
4205.38461532;4202.43589737;4274.74358982;4234.61538462;4370.64102592;1976.79486700;137.30768363;-0.00000896;3813.33333243;4305.89743604;4266.92307700;4305.76923091;4568.84615454;4238.97435898;4201.66666660;4205.12820506
4205.25641019;4202.94871788;4372.56410285;4235.51282052;4496.53846210;2004.35896964;229.99999153;-0.00000896;3810.38461449;4335.00000021;4207.82051275;4303.58974373;4468.46153895;4241.28205129;4174.48717935;4205.12820506
4204.35897429;4202.82051275;4174.99999986;4235.38461539;4271.02564110;2006.15384143;137.30768363;-0.00000896;3808.71794782;4337.69230790;4143.46153826;4303.07692322;4465.76923126;4240.00000000;4201.28205122;4205.12820506
4205.51282045;4201.66666660;4537.30769294;4236.15384616;4598.71794949;2004.99999528;229.99999153;-0.00000896;3808.97435807;4304.87179501;4369.23076951;4306.02564117;4698.84615482;4240.25641026;4201.41025634;4205.12820506
4205.38461532;4201.79487173;4270.12820520;4235.64102564;4365.25641054;2003.46153374;137.30768363;-0.00000896;3810.25640936;4307.17948732;4201.15384609;4304.61538476;4470.89743639;4240.89743590;4201.41025634;4205.12820506
4205.89743583;4201.15384609;4272.30769238;4235.64102564;4372.82051310;2003.20512348;229.99999153;-0.00000896;3809.87179397;4335.12820534;4303.71794886;4300.25641040;4534.48718012;4241.41025641;4201.53846147;4205.12820506
4205.76923070;4202.17948711;4365.12820541;4235.76923077;4405.64102599;2010.12820041;137.30768363;-0.00000896;3810.51281961;4306.28205142;4203.33333327;4304.74358989;4500.89743646;4239.61538462;4201.15384609;4205.12820506
4205.64102558;4201.92307686;4206.28205122;4234.10256411;4274.10256418;2010.12820041;229.99999153;-0.00000896;3811.15384525;4332.69230790;4203.58974352;4303.71794886;4465.12820562;4240.00000000;4201.28205122;4205.12820506
4205.51282045;4203.07692301;4504.35897492;4233.84615385;4565.12820583;2035.25640560;137.30768363;-0.00000896;3811.28205038;4304.35897450;4306.41025655;4303.84615399;4798.33333452;4238.71794872;4201.02564096;4205.12820506
4205.38461532;4202.82051275;4274.23076930;4234.35897436;4435.76923119;2006.53845682;229.99999153;-0.00000896;3813.71794782;4306.28205142;4301.02564117;4301.41025655;4464.10256459;4240.76923077;4201.79487173;4205.12820506
4204.61538455;4204.23076917;4301.02564117;4236.02564103;4303.84615399;2005.25640554;137.30768363;-0.00000896;3813.71794782;4334.74358996;4270.00000007;4302.56410271;4503.97435953;4240.25641026;4201.28205122;4205.12820506
4204.10256404;4204.48717942;4304.35897450;4236.79487180;4401.53846189;2003.84614912;229.99999153;-0.00000896;3811.02564013;4335.64102585;4202.94871788;4302.69230784;4498.20512876;4238.97435898;4201.02564096;4205.12820506
4203.33333327;4202.30769224;4369.87179515;4236.79487180;4501.66666723;2007.82050810;137.30768363;-0.00000896;3811.41025551;4304.10256425;4338.07692329;4304.35897450;4598.58974436;4238.33333334;4201.66666660;4205.12820506
4204.10256404;4202.94871788;4402.56410292;4235.12820513;4403.84615420;2008.58973887;229.99999153;-0.00000896;3807.82051192;4306.79487194;4300.12820527;4302.94871809;4536.28205191;4241.66666667;4201.66666660;4205.12820506
4202.82051275;4203.20512814;4272.82051289;4235.76923077;4370.12820541;2008.71794400;137.30768363;-0.00000896;3809.10256320;4332.43589765;4234.87179488;4304.61538476;4569.87179557;4240.76923077;4174.61538448;4205.12820506
4203.20512814;4203.46153840;4336.66666688;4235.00000000;4366.79487208;2005.38461066;229.99999153;-0.00000896;3810.76922987;4335.38461560;4273.71794879;4304.23076937;4499.10256466;4266.66666674;4176.02564089;4205.12820506
4203.07692301;4202.43589737;4207.05128199;4233.97435898;4300.38461553;2006.15384143;137.30768363;-0.00000896;3812.05128115;4302.43589758;4105.38461511;4305.12820527;4501.66666723;4240.51282052;4201.28205122;4205.12820506
4203.07692301;4202.56410250;4468.07692357;4235.38461539;4532.94871858;2006.02563630;229.99999153;-0.00000896;3810.38461449;4332.56410278;4464.61538511;4304.61538476;4662.17948809;4240.76923077;4201.15384609;4205.12820506
4204.99999993;4203.20512814;4270.25641033;4233.84615385;4334.35897457;2006.28204656;137.30768363;-0.00000896;3807.30769141;4305.76923091;4205.89743583;4303.97435912;4601.15384692;4239.74358975;4201.53846147;4205.12820506
4206.02564096;4202.82051275;4365.51282079;4234.74358975;4465.51282100;1977.17948239;229.99999153;-0.00000896;3808.46153756;4333.07692329;4306.79487194;4305.00000014;4496.66666723;4239.48717949;4201.28205122;4205.12820506
4206.66666660;4202.17948711;4270.89743597;4235.89743590;4401.53846189;2004.10255938;137.30768363;-0.00000896;3810.76922987;4335.12820534;4272.17948725;4304.23076937;4563.97435967;4266.92307700;4201.28205122;4205.12820506
4205.64102558;4202.17948711;4269.10256418;4235.38461539;4304.35897450;2006.15384143;229.99999153;-0.00000896;3811.79487090;4303.71794886;4171.28205115;4304.35897450;4467.05128254;4240.38461539;4174.48717935;4205.12820506
4206.53846147;4202.30769224;4502.94871851;4234.87179488;4660.76923168;2005.51281579;137.30768363;-0.00000896;3812.82051192;4306.41025655;4398.58974394;4302.05128219;4728.84615489;4237.94871795;4201.02564096;4205.12820506
4206.02564096;4202.30769224;4306.79487194;4235.25641026;4333.58974380;2006.28204656;229.99999153;-0.00000896;3810.76922987;4333.71794893;4174.48717935;4303.71794886;4498.97435953;4266.79487187;4201.28205122;4205.12820506
4205.51282045;4202.30769224;4333.33333355;4234.61538462;4467.82051331;2007.30768759;137.30768363;-0.00000896;3809.87179397;4332.69230790;4208.97435891;4303.46153860;4536.02564165;4241.02564103;4176.28205115;4205.12820506
4205.12820506;4202.30769224;4271.53846161;4235.00000000;4334.48717970;2002.30768759;229.99999153;-0.00000896;3810.38461449;4306.41025655;4236.53846154;4303.46153860;4496.79487235;4239.74358975;4175.64102551;4205.12820506
4204.74358968;4201.66666660;4300.25641040;4208.97435891;4339.87179508;2003.20512348;137.30768363;-0.00000896;3810.38461449;4338.58974380;4206.66666660;4303.20512835;4532.69230832;4241.15384616;4176.15384602;4205.12820506
4203.46153840;4201.66666660;4565.89743660;4234.10256411;4598.33333410;2004.23076451;229.99999153;-0.00000896;3808.84615295;4333.58974380;4304.23076937;4303.33333348;4666.53846245;4239.87179488;4202.56410250;4205.12820506
4204.61538455;4175.12820499;4241.53846154;4234.35897436;4369.10256438;2007.05127733;8212.43590585;-0.00000896;3809.87179397;4305.64102578;4306.92307707;4305.12820527;4498.58974415;4239.61538462;4201.02564096;4205.12820506
4202.94871788;4201.41025634;4338.46153867;4208.84615378;4369.23076951;2006.66666195;8212.69231610;-0.00000896;3809.61538372;4335.51282073;4300.51282066;4302.43589758;4529.35897499;4240.64102564;4201.02564096;4205.12820506
4204.35897429;4176.02564089;4237.05128206;4234.35897436;4305.64102578;2009.35896964;8308.20513683;-0.00000896;3807.82051192;4302.56410271;4168.20512807;4303.97435912;4500.00000056;4240.76923077;4176.28205115;4205.12820506
4204.87179481;4201.92307686;4372.43589772;4235.00000000;4497.56410312;2008.20512348;229.99999153;-0.00000896;3809.74358884;4305.64102578;4337.17948739;4303.20512835;4632.56410340;4240.51282052;4201.41025634;4205.12820506
4204.10256404;4203.58974352;4307.17948732;4234.74358975;4405.51282086;2006.66666195;229.99999153;-0.00000896;3809.74358884;4306.41025655;4237.94871795;4306.66666681;4535.12820576;4241.15384616;4202.30769224;4205.12820506
4206.02564096;4202.43589737;4400.12820548;4234.10256411;4466.92307741;2008.46153374;229.99999153;-0.00000896;3811.53846064;4305.12820527;4240.64102564;4301.92307707;4597.43589820;4238.84615385;4201.28205122;4205.12820506
4205.51282045;4202.56410250;4398.07692343;4235.12820513;4435.25641068;2006.79486707;229.99999153;-0.00000896;3812.69230679;4307.30769245;4271.66666674;4305.12820527;4501.79487235;4239.23076923;4201.41025634;4205.12820506
4205.25641019;4202.69230763;4172.30769217;4208.97435891;4267.82051289;2005.25640554;-0.00000896;-0.00000896;3813.84615295;4307.56410271;4203.84615378;4303.71794886;4464.48717998;4240.38461539;4176.28205115;4205.12820506
4204.87179481;4202.56410250;4629.10256494;4236.92307693;4668.07692398;2005.12820041;-0.00000896;-0.00000896;3811.92307602;4307.43589758;4372.17948746;4301.92307707;4733.33333438;4239.35897436;4201.15384609;4205.12820506
4204.87179481;4203.07692301;4173.71794858;4236.28205129;4303.58974373;2009.35896964;-0.00000896;-0.00000896;3811.28205038;4306.28205142;4207.30769224;4303.97435912;4437.30769273;4240.12820513;4201.02564096;4205.12820506
4204.87179481;4202.69230763;4434.48717991;4234.35897436;4503.84615441;2005.12820041;-0.00000896;-0.00000896;3810.38461449;4304.48717963;4204.10256404;4304.48717963;4598.07692385;4240.64102564;4176.02564089;4205.12820506
4204.35897429;4204.10256404;4273.84615392;4236.15384616;4338.33333355;2005.89743118;-0.00000896;-0.00000896;3810.12820423;4333.84615406;4269.48717956;4303.20512835;4504.35897492;4267.17948725;4201.79487173;4205.12820506
4204.23076917;4202.56410250;4304.10256425;4234.61538462;4397.94871830;2005.51281579;-0.00000896;-0.00000896;3811.66666577;4303.84615399;4137.43589723;4303.20512835;4496.79487235;4241.41025641;4201.02564096;4205.12820506
4205.25641019;4202.69230763;4470.51282100;4234.10256411;4537.17948781;2003.84614912;-0.00000896;-0.00000896;3811.41025551;4307.17948732;4371.02564131;4303.58974373;4601.41025718;4241.66666667;4201.28205122;4205.12820506
4205.12820506;4202.43589737;4268.97435905;4234.87179488;4333.71794893;2006.92307220;-0.00000896;-0.00000896;3811.41025551;4304.87179501;4307.43589758;4301.53846168;4471.28205177;4240.25641026;4201.53846147;4205.12820506
4204.61538455;4202.56410250;4365.64102592;4235.12820513;4400.38461574;2005.76922605;-0.00000896;-0.00000896;3810.76922987;4304.61538476;4234.87179488;4302.69230784;4568.84615454;4241.02564103;4201.41025634;4205.12820506
4204.48717942;4203.33333327;4241.53846154;4235.38461539;4334.87179508;1977.17948239;-0.00000896;-0.00000896;3810.64102474;4304.87179501;4234.48717949;4304.48717963;4566.28205198;4240.25641026;4201.41025634;4205.12820506
4204.99999993;4201.66666660;4435.89743632;4235.25641026;4565.38461608;2003.20512348;-0.00000896;-0.00000896;3811.79487090;4306.53846168;4301.92307707;4304.48717963;4503.20512876;4239.23076923;4201.15384609;4205.12820506
4204.74358968;4202.43589737;4370.64102592;4235.25641026;4405.76923112;2008.33332861;-0.00000896;-0.00000896;3809.61538372;4306.02564117;4270.00000007;4302.94871809;4602.05128282;4241.41025641;4176.28205115;4205.12820506
4205.25641019;4202.05128199;4333.71794893;4236.28205129;4431.79487222;2035.89743125;-0.00000896;-0.00000896;3781.79487083;4303.20512835;4269.10256418;4303.07692322;4498.46153902;4241.79487180;4201.02564096;4205.12820506
4206.02564096;4203.97435891;4303.07692322;4234.87179488;4404.10256445;2006.02563630;-0.00000896;-0.00000896;3810.12820423;4307.56410271;4238.58974359;4303.07692322;4567.17948788;4240.38461539;4176.28205115;4205.12820506
4206.92307686;4203.20512814;4236.02564103;4234.10256411;4274.61538469;2004.10255938;-0.00000896;-0.00000896;3814.87179397;4336.79487201;4137.43589723;4303.33333348;4466.53846203;4240.12820513;4201.15384609;4205.12820506
4204.99999993;4202.69230763;4436.66666709;4235.25641026;4500.00000056;1975.76922598;-0.00000896;-0.00000896;3814.23076833;4307.43589758;4431.15384657;4300.25641040;4667.43589834;4240.64102564;4201.53846147;4205.12820506
4204.99999993;4176.28205115;4339.74358996;4235.64102564;4370.25641054;1977.30768752;-0.00000896;-0.00000896;3812.05128115;4332.30769252;4208.07692301;4303.71794886;4562.56410326;4241.41025641;4201.53846147;4205.12820506
4205.12820506;4175.89743576;4372.82051310;4235.76923077;4501.15384671;2007.17948246;-0.00000896;-0.00000896;3809.87179397;4302.69230784;4273.58974366;4303.84615399;4563.33333403;4241.02564103;4176.28205115;4205.12820506
4204.10256404;4201.92307686;4300.00000014;4235.76923077;4340.38461560;2004.10255938;-0.00000896;-0.00000896;3812.30769141;4336.53846175;4304.23076937;4303.97435912;4499.23076979;4239.87179488;4203.33333327;4205.12820506
4201.79487173;4202.17948711;4208.46153840;4235.64102564;4333.84615406;2004.74358502;-0.00000896;-0.00000896;3814.48717859;4306.28205142;4137.82051262;4304.35897450;4562.05128275;4240.51282052;4202.05128199;4205.12820506
4201.15384609;4175.51282038;4569.87179557;4234.61538462;4662.43589834;2006.28204656;-0.00000896;-0.00000896;3811.92307602;4305.64102578;4432.30769273;4307.17948732;4635.76923161;4238.84615385;4201.41025634;4205.12820506
4175.89743576;4174.87179474;4268.20512828;4235.00000000;4301.92307707;2005.38461066;-0.00000896;-0.00000896;3810.25640936;4333.07692329;4174.23076910;4303.84615399;4469.61538511;4240.25641026;4175.64102551;4172.30769217
4201.15384609;4201.66666660;4366.28205156;4234.87179488;4398.07692343;2009.61537989;-0.00000896;-0.00000896;3782.43589647;4307.05128219;4203.58974352;4304.48717963;4533.20512883;4240.25641026;4201.53846147;4205.12820506
4202.05128199;4202.56410250;4268.07692315;4234.35897436;4371.79487208;2036.92307227;-0.00000896;-0.00000896;3807.56410166;4301.02564117;4235.89743590;4302.43589758;4500.89743646;4239.48717949;4201.53846147;4205.12820506
4201.53846147;4203.58974352;4273.46153853;4207.17948711;4339.87179508;2005.38461066;229.99999153;-0.00000896;3809.99999910;4303.71794886;4271.41025648;4304.87179501;4470.76923126;4240.25641026;4201.28205122;4205.12820506
4201.53846147;4204.61538455;4536.28205191;4208.58974352;4600.00000077;2008.58973887;8337.30770100;-0.00000896;3809.61538372;4302.43589758;4299.87179501;4303.46153860;4733.07692412;4239.10256411;4201.92307686;4205.12820506
4201.53846147;4204.48717942;4269.61538469;4234.10256411;4332.30769252;2007.05127733;8336.92308561;-0.00000896;3811.92307602;4305.76923091;4273.33333341;4302.94871809;4533.84615448;4267.82051289;4201.15384609;4205.12820506
4201.66666660;4205.12820506;4336.02564124;4234.87179488;4464.48717998;2005.64102092;8336.41026510;-0.00000896;3810.64102474;4305.51282066;4240.64102564;4305.76923091;4566.53846224;4239.74358975;4201.02564096;4205.12820506
4203.33333327;4204.87179481;4307.05128219;4235.25641026;4339.61538483;2006.92307220;229.99999153;-0.00000896;3808.58974269;4333.07692329;4168.46153833;4304.23076937;4536.28205191;4239.87179488;4201.02564096;4205.12820506
4204.74358968;4205.64102558;4370.51282079;4235.38461539;4498.97435953;2007.05127733;229.99999153;-0.00000896;3781.15384518;4333.46153867;4436.15384657;4304.23076937;4602.17948795;4239.74358975;4201.02564096;4205.12820506
4205.76923070;4204.23076917;4434.87179529;4234.48717949;4471.28205177;2003.58973887;229.99999153;-0.00000896;3781.66666570;4339.61538483;4201.92307686;4305.76923091;4567.69230839;4240.25641026;4201.28205122;4205.12820506
4208.58974352;4201.79487173;4268.33333341;4234.87179488;4334.61538483;2006.66666195;229.99999153;-0.00000896;3781.92307595;4334.23076944;4269.35897443;4301.66666681;4596.66666743;4267.56410264;4176.28205115;4205.12820506
4235.00000000;4201.02564096;4306.28205142;4233.97435898;4370.00000028;2006.53845682;229.99999153;-0.00000896;3810.25640936;4304.35897450;4234.10256411;4301.92307707;4503.33333389;4239.23076923;4175.64102551;4237.94871795
4236.02564103;4175.64102551;4208.97435891;4234.35897436;4303.58974373;2006.66666195;229.99999153;-0.00000896;3814.35897346;4306.66666681;4173.46153833;4305.64102578;4432.56410298;4238.33333334;4201.66666660;4237.94871795
4235.25641026;4201.66666660;4501.02564159;4235.12820513;4536.66666730;2003.20512348;229.99999153;-0.00000896;3843.20512738;4305.51282066;4370.89743618;4303.84615399;4728.71794976;4240.38461539;4203.33333327;4237.94871795
4208.84615378;4201.66666660;4304.48717963;4235.00000000;4402.69230804;2005.25640554;229.99999153;-0.00000896;3842.43589661;4306.79487194;4207.43589737;4302.56410271;4466.92307741;4239.74358975;4201.02564096;4205.12820506
4207.43589737;4202.94871788;4302.94871809;4237.56410257;4370.00000028;2004.35896964;229.99999153;-0.00000896;3814.61538372;4304.48717963;4332.56410278;4303.71794886;4532.94871858;4240.51282052;4175.89743576;4205.12820506
4207.43589737;4202.43589737;4335.76923098;4237.94871795;4339.48717970;2005.89743118;229.99999153;-0.00000896;3812.94871705;4333.71794893;4301.28205142;4305.38461553;4502.43589800;4239.74358975;4176.28205115;4205.12820506
4206.66666660;4203.58974352;4270.25641033;4237.69230770;4366.53846182;2006.41025169;229.99999153;-0.00000896;3809.10256320;4306.02564117;4168.84615371;4302.43589758;4594.87179564;4239.48717949;4201.79487173;4205.12820506
4207.82051275;4202.43589737;4464.61538511;4237.94871795;4567.17948788;2007.17948246;229.99999153;-0.00000896;3810.38461449;4306.41025655;4436.28205170;4304.48717963;4599.74359051;4267.05128212;4201.41025634;4205.12820506
4207.05128199;4202.69230763;4304.48717963;4235.76923077;4370.38461567;2003.46153374;229.99999153;-0.00000896;3811.41025551;4305.76923091;4170.64102551;4302.82051296;4532.69230832;4241.15384616;4174.74358961;4205.12820506
4206.53846147;4202.30769224;4367.30769259;4235.76923077;4404.10256445;1977.17948239;229.99999153;-0.00000896;3814.23076833;4306.28205142;4207.30769224;4301.41025655;4533.58974422;4240.89743590;4201.66666660;4205.12820506
4204.61538455;4203.33333327;4336.41025662;4236.66666667;4339.35897457;2008.84614912;229.99999153;-0.00000896;3812.56410166;4306.79487194;4173.84615371;4303.97435912;4501.92307748;4240.38461539;4176.28205115;4205.12820506
4205.25641019;4202.30769224;4367.56410285;4236.92307693;4529.48718012;2007.17948246;229.99999153;-0.00000896;3809.87179397;4303.84615399;4398.20512856;4302.56410271;4501.02564159;4240.12820513;4203.97435891;4205.12820506
4204.48717942;4203.07692301;4367.17948746;4236.53846154;4372.56410285;2004.10255938;229.99999153;-0.00000896;3810.38461449;4305.89743604;4303.33333348;4303.58974373;4631.41025725;4240.89743590;4201.15384609;4205.12820506
4204.35897429;4204.23076917;4333.84615406;4236.02564103;4431.15384657;2005.38461066;229.99999153;-0.00000896;3810.89743500;4307.56410271;4236.15384616;4303.33333348;4500.64102620;4239.48717949;4203.07692301;4205.12820506
4204.61538455;4204.23076917;4273.84615392;4235.76923077;4367.30769259;2006.66666195;229.99999153;-0.00000896;3810.25640936;4337.69230790;4271.02564110;4302.69230784;4565.25641096;4239.48717949;4201.66666660;4205.12820506
4204.87179481;4204.10256404;4235.00000000;4237.17948718;4333.97435919;2004.74358502;229.99999153;-0.00000896;3810.76922987;4333.84615406;4207.43589737;4303.20512835;4398.71794907;4267.56410264;4201.15384609;4205.12820506
4204.35897429;4203.07692301;4500.89743646;4236.79487180;4562.82051352;2004.35896964;229.99999153;-0.00000896;3812.05128115;4338.71794893;4304.87179501;4303.20512835;4861.02564235;4239.87179488;4201.02564096;4205.12820506
4205.76923070;4201.66666660;4307.43589758;4236.15384616;4435.12820555;2005.89743118;229.99999153;-0.00000896;3809.99999910;4337.82051303;4366.15384644;4306.28205142;4369.10256438;4240.64102564;4201.53846147;4205.12820506
4204.35897429;4202.05128199;4402.94871830;4237.30769231;4464.23076972;2007.30768759;229.99999153;-0.00000896;3809.61538372;4306.66666681;4175.76923063;4302.69230784;4632.69230853;4240.25641026;4201.15384609;4205.12820506
4204.87179481;4201.53846147;4266.92307700;4236.66666667;4370.12820541;2006.28204656;229.99999153;-0.00000896;3809.74358884;4337.43589765;4239.61538462;4303.20512835;4564.23076993;4241.92307693;4201.41025634;4205.12820506
4205.12820506;4201.66666660;4206.66666660;4237.05128206;4304.87179501;2008.46153374;229.99999153;-0.00000896;3808.84615295;4306.79487194;4140.51282031;4303.20512835;4467.69230818;4240.00000000;4201.15384609;4205.12820506
4204.10256404;4201.15384609;4497.82051338;4236.66666667;4565.64102634;2007.30768759;229.99999153;-0.00000896;3809.35897346;4304.61538476;4431.15384657;4301.92307707;4635.00000084;4240.76923077;4201.53846147;4205.12820506
4203.97435891;4201.66666660;4273.84615392;4235.76923077;4332.30769252;2004.35896964;229.99999153;-0.00000896;3808.97435807;4305.64102578;4202.17948711;4302.56410271;4530.89743653;4239.87179488;4176.28205115;4205.12820506
4203.97435891;4202.56410250;4300.64102578;4235.00000000;4398.71794907;2007.30768759;229.99999153;-0.00000896;3809.61538372;4335.51282073;4274.74358982;4303.46153860;4562.82051352;4239.10256411;4201.41025634;4205.12820506
4203.58974352;4201.41025634;4332.69230790;4235.64102564;4368.97435926;2008.33332861;229.99999153;-0.00000896;3809.23076833;4302.17948732;4235.51282052;4304.35897450;4470.25641075;4240.89743590;4201.66666660;4205.12820506
4202.94871788;4202.69230763;4268.58974366;4235.64102564;4336.41025662;2006.92307220;229.99999153;-0.00000896;3782.30769134;4302.82051296;4299.87179501;4305.25641040;4466.28205177;4267.30769238;4201.41025634;4205.12820506
4203.46153840;4201.79487173;4464.48717998;4236.02564103;4530.89743653;2004.48717477;229.99999153;-0.00000896;3809.35897346;4306.79487194;4300.00000014;4303.20512835;4797.43589862;4240.51282052;4201.15384609;4205.12820506
4203.84615378;4203.33333327;4240.76923077;4235.38461539;4398.97435933;2006.02563630;229.99999153;-0.00000896;3808.33333243;4304.74358989;4372.56410285;4302.82051296;4435.51282093;4240.12820513;4201.02564096;4205.12820506
4203.33333327;4202.43589737;4403.58974394;4237.17948718;4438.71794914;2037.69230304;229.99999153;-0.00000896;3807.17948628;4301.41025655;4235.89743590;4302.94871809;4596.79487256;4241.02564103;4201.15384609;4205.12820506
4204.87179481;4203.33333327;4241.02564103;4235.64102564;4306.28205142;2036.79486714;138.33332465;-0.00000896;3807.94871705;4306.79487194;4206.15384609;4304.61538476;4530.76923140;4240.25641026;4201.53846147;4205.12820506
4206.02564096;4204.23076917;4436.15384657;4235.12820513;4537.05128268;1976.79486700;8241.79488028;-0.00000896;3812.30769141;4305.51282066;4401.53846189;4304.48717963;4567.43589813;4239.48717949;4176.15384602;4205.12820506
4204.35897429;4205.38461532;4338.46153867;4237.17948718;4402.56410292;1971.53845675;229.99999153;-0.00000896;3811.66666577;4333.33333355;4267.17948725;4301.66666681;4532.56410319;4240.00000000;4176.02564089;4205.12820506
4205.25641019;4202.56410250;4303.84615399;4237.17948718;4433.20512863;1974.23076444;8241.79488028;-0.00000896;3809.74358884;4335.00000021;4236.92307693;4301.79487194;4531.66666730;4241.79487180;4201.92307686;4205.12820506
4206.02564096;4202.05128199;4302.82051296;4237.17948718;4340.12820534;2002.30768759;-0.00000896;-0.00000896;3779.99999903;4334.10256431;4271.15384623;4303.07692322;4529.48718012;4241.28205129;4202.82051275;4205.12820506
4206.41025634;4202.17948711;4236.53846154;4237.17948718;4273.97435905;2003.71794400;-0.00000896;-0.00000896;3779.10256313;4333.71794893;4105.38461511;4305.25641040;4499.74359030;4241.15384616;4201.66666660;4205.12820506
4206.79487173;4176.02564089;4496.92307748;4237.30769231;4597.69230846;2006.53845682;-0.00000896;-0.00000896;3781.02564006;4306.28205142;4498.20512876;4302.17948732;4661.02564193;4240.51282052;4201.41025634;4205.12820506
4205.89743583;4201.28205122;4270.64102571;4235.25641026;4304.23076937;2009.87179015;-0.00000896;-0.00000896;3782.17948621;4333.20512842;4169.35897422;4301.79487194;4601.92307769;4240.00000000;4201.02564096;4205.12820506
4205.89743583;4201.41025634;4434.74359016;4235.38461539;4535.38461601;2036.66666201;-0.00000896;-0.00000896;3808.97435807;4302.17948732;4240.12820513;4302.82051296;4501.92307748;4241.28205129;4173.84615371;4205.12820506
4205.89743583;4203.46153840;4332.82051303;4234.10256411;4402.94871830;2007.05127733;-0.00000896;-0.00000896;3808.07692218;4333.20512842;4236.02564103;4304.74358989;4502.30769287;4241.28205129;4201.02564096;4205.12820506
4205.12820506;4202.82051275;4268.07692315;4234.87179488;4340.12820534;2007.56409784;-0.00000896;-0.00000896;3809.74358884;4306.79487194;4110.25640998;4304.23076937;4464.74359023;4240.25641026;4175.89743576;4205.12820506
4203.97435891;4203.33333327;4437.17948760;4235.64102564;4567.43589813;2009.99999528;-0.00000896;-0.00000896;3809.99999910;4304.74358989;4405.00000035;4304.35897450;4662.69230860;4241.66666667;4201.41025634;4205.12820506
4203.46153840;4204.23076917;4304.35897450;4234.10256411;4332.56410278;2007.17948246;-0.00000896;-0.00000896;3808.58974269;4334.61538483;4205.51282045;4306.15384630;4533.84615448;4266.66666674;4201.66666660;4205.12820506
4203.58974352;4203.71794865;4335.25641047;4234.87179488;4432.05128247;2005.64102092;-0.00000896;-0.00000896;3808.46153756;4306.92307707;4235.64102564;4302.30769245;4498.97435953;4240.76923077;4201.41025634;4205.12820506
4203.84615378;4203.97435891;4300.76923091;4209.10256404;4333.71794893;2004.61537989;-0.00000896;-0.00000896;3807.56410166;4336.79487201;4204.61538455;4304.23076937;4564.87179557;4241.79487180;4176.28205115;4205.12820506
4204.35897429;4203.33333327;4405.64102599;4235.12820513;4595.12820590;2008.46153374;-0.00000896;-0.00000896;3781.28205031;4335.12820534;4334.35897457;4303.20512835;4496.53846210;4239.10256411;4205.12820506;4205.12820506
4205.89743583;4202.56410250;4334.87179508;4234.35897436;4372.56410285;2035.89743125;-0.00000896;-0.00000896;3807.94871705;4332.30769252;4240.76923077;4304.10256425;4629.10256494;4241.79487180;4201.15384609;4205.12820506
4206.28205122;4201.79487173;4334.74358996;4234.48717949;4404.48717984;2004.99999528;-0.00000896;-0.00000896;3810.12820423;4306.28205142;4235.00000000;4304.10256425;4563.07692378;4240.89743590;4201.41025634;4205.12820506
4206.41025634;4201.79487173;4368.71794900;4234.61538462;4465.25641075;2006.15384143;-0.00000896;-0.00000896;3812.56410166;4333.58974380;4204.23076917;4303.97435912;4497.05128261;4266.92307700;4201.28205122;4205.12820506
4206.79487173;4201.41025634;4269.23076930;4235.00000000;4333.46153867;2003.71794400;-0.00000896;-0.00000896;3812.94871705;4306.79487194;4169.87179474;4301.15384630;4531.02564165;4267.30769238;4175.12820499;4205.12820506
4206.15384609;4176.02564089;4404.48717984;4235.25641026;4503.20512876;2005.38461066;-0.00000896;-0.00000896;3811.02564013;4333.20512842;4372.56410285;4305.00000014;4632.56410340;4238.71794872;4201.15384609;4205.12820506
4205.25641019;4202.56410250;4301.41025655;4235.51282052;4372.43589772;2002.43589271;-0.00000896;-0.00000896;3812.30769141;4300.76923091;4238.07692308;4304.74358989;4498.07692364;4241.92307693;4175.51282038;4205.12820506
4204.48717942;4203.46153840;4366.66666695;4237.30769231;4467.82051331;2005.89743118;-0.00000896;-0.00000896;3810.25640936;4307.17948732;4272.94871802;4300.51282066;4563.20512890;4240.51282052;4201.53846147;4205.12820506
4204.23076917;4203.71794865;4273.46153853;4235.64102564;4400.25641061;2006.66666195;-0.00000896;-0.00000896;3807.43589654;4304.48717963;4272.05128212;4305.76923091;4530.25641089;4241.15384616;4174.74358961;4205.12820506
4204.10256404;4202.69230763;4234.48717949;4236.66666667;4305.51282066;2004.87179015;-0.00000896;-0.00000896;3808.07692218;4332.30769252;4172.05128192;4303.46153860;4468.97435946;4238.71794872;4201.15384609;4205.12820506
4204.23076917;4203.07692301;4568.97435967;4234.87179488;4633.58974443;2009.74358502;-0.00000896;-0.00000896;3781.53846057;4305.25641040;4369.74359003;4303.84615399;4792.43589862;4239.74358975;4201.53846147;4205.12820506
4204.87179481;4203.46153840;4235.25641026;4234.87179488;4304.23076937;2008.97435425;-0.00000896;-0.00000896;3780.51281954;4303.97435912;4205.89743583;4303.46153860;4468.97435946;4241.15384616;4175.89743576;4205.12820506
4204.74358968;4203.20512814;4371.15384644;4234.35897436;4402.94871830;2006.92307220;-0.00000896;-0.00000896;3781.53846057;4305.76923091;4174.35897422;4304.23076937;4504.23076979;4241.28205129;4201.41025634;4205.12820506
4206.92307686;4201.53846147;4209.10256404;4233.84615385;4336.53846175;2003.46153374;229.99999153;-0.00000896;3809.74358884;4307.17948732;4238.58974359;4303.46153860;4498.58974415;4240.64102564;4176.28205115;4205.12820506
4206.02564096;4202.56410250;4307.43589758;4208.84615378;4334.10256431;2005.38461066;229.99999153;-0.00000896;3809.48717859;4333.71794893;4203.07692301;4305.00000014;4498.58974415;4240.25641026;4201.28205122;4205.12820506
4206.41025634;4201.15384609;4499.87179543;4235.00000000;4530.38461601;2003.84614912;229.99999153;-0.00000896;3811.92307602;4305.00000014;4307.43589758;4303.71794886;4660.51282142;4239.10256411;4174.87179474;4205.12820506
4204.87179481;4202.43589737;4306.28205142;4233.97435898;4431.53846196;2005.64102092;229.99999153;-0.00000896;3809.99999910;4304.23076937;4333.84615406;4304.48717963;4468.71794921;4239.87179488;4201.15384609;4205.12820506
4204.74358968;4201.79487173;4300.51282066;4235.64102564;4371.15384644;2007.30768759;8340.25641895;-0.00000896;3809.74358884;4333.33333355;4267.69230777;4304.74358989;4471.15384664;4239.23076923;4175.51282038;4205.12820506
4204.10256404;4201.79487173;4207.56410250;4236.02564103;4301.92307707;2035.89743125;135.38460670;-0.00000896;3808.58974269;4303.84615399;4169.61538448;4306.28205142;4497.94871851;4240.38461539;4201.15384609;4205.12820506
4203.20512814;4203.20512814;4403.07692343;4235.25641026;4501.92307748;2009.10255938;229.99999153;-0.00000896;3808.46153756;4306.92307707;4306.28205142;4303.07692322;4602.94871872;4241.28205129;4202.43589737;4205.12820506
4204.74358968;4202.69230763;4302.30769245;4235.76923077;4399.23076958;2006.53845682;135.38460670;-0.00000896;3807.69230679;4332.94871816;4338.07692329;4303.97435912;4468.33333382;4240.89743590;4201.15384609;4205.12820506
4204.48717942;4202.17948711;4368.71794900;4235.12820513;4434.23076965;2008.84614912;229.99999153;-0.00000896;3809.10256320;4332.30769252;4233.97435898;4302.82051296;4633.58974443;4239.87179488;4201.28205122;4205.12820506
4204.48717942;4202.43589737;4304.35897450;4235.25641026;4469.10256459;2004.35896964;135.38460670;-0.00000896;3810.64102474;4305.89743604;4240.12820513;4305.12820527;4500.38461594;4241.41025641;4202.94871788;4205.12820506
4203.20512814;4202.30769224;4208.97435891;4235.51282052;4332.82051303;1977.17948239;229.99999153;-0.00000896;3810.12820423;4335.38461560;4170.89743576;4305.38461553;4437.17948760;4267.17948725;4176.15384602;4205.12820506
4202.69230763;4201.15384609;4470.25641075;4235.76923077;4500.12820569;2007.69230297;135.38460670;-0.00000896;3782.43589647;4332.56410278;4436.28205170;4302.82051296;4629.74359058;4239.48717949;4201.15384609;4205.12820506
4205.64102558;4201.41025634;4235.38461539;4235.25641026;4273.58974366;2037.17948253;229.99999153;-0.00000896;3778.97435801;4306.15384630;4202.43589737;4304.35897450;4567.94871865;4239.35897436;4201.28205122;4205.12820506
4204.99999993;4203.07692301;4371.41025669;4236.15384616;4498.97435953;2008.58973887;135.38460670;-0.00000896;3808.58974269;4305.51282066;4201.79487173;4301.92307707;4598.71794949;4241.02564103;4201.41025634;4205.12820506
4206.15384609;4202.69230763;4300.89743604;4234.61538462;4433.97435940;2005.25640554;229.99999153;-0.00000896;3808.33333243;4335.76923098;4203.71794865;4303.84615399;4531.53846217;4239.10256411;4201.79487173;4205.12820506
4205.38461532;4203.07692301;4203.97435891;4235.51282052;4270.89743597;1977.30768752;135.38460670;-0.00000896;3811.53846064;4307.05128219;4176.02564089;4302.30769245;4470.00000049;4241.15384616;4201.79487173;4205.12820506
4204.35897429;4202.69230763;4436.15384657;4235.89743590;4531.28205191;2004.23076451;229.99999153;-0.00000896;3808.33333243;4303.07692322;4398.58974394;4302.43589758;4695.51282149;4240.51282052;4176.28205115;4205.12820506
4204.74358968;4203.20512814;4241.79487180;4235.25641026;4302.69230784;2004.35896964;135.38460670;-0.00000896;3807.56410166;4305.38461553;4304.61538476;4302.56410271;4466.79487229;4240.64102564;4201.15384609;4205.12820506
4205.25641019;4202.82051275;4333.33333355;4236.02564103;4368.71794900;2004.23076451;229.99999153;-0.00000896;3781.28205031;4306.15384630;4272.30769238;4306.41025655;4567.30769301;4240.38461539;4201.79487173;4205.12820506
4206.66666660;4175.89743576;4268.58974366;4235.00000000;4398.84615420;2005.12820041;135.38460670;-0.00000896;3807.94871705;4335.12820534;4203.07692301;4302.43589758;4499.61538518;4240.00000000;4175.12820499;4205.12820506
4205.12820506;4202.69230763;4437.94871837;4235.25641026;4529.74359037;2005.76922605;229.99999153;-0.00000896;3808.71794782;4332.94871816;4300.89743604;4303.20512835;4601.28205205;4240.00000000;4176.28205115;4205.12820506
4205.12820506;4202.43589737;4366.92307720;4233.97435898;4431.02564145;2007.82050810;135.38460670;-0.00000896;3807.82051192;4305.25641040;4302.94871809;4302.69230784;4567.56410326;4241.15384616;4176.02564089;4205.12820506
4206.28205122;4201.28205122;4299.87179501;4233.97435898;4371.92307720;2006.15384143;229.99999153;-0.00000896;3808.84615295;4306.28205142;4267.05128212;4302.30769245;4501.79487235;4239.23076923;4203.20512814;4205.12820506
4205.89743583;4201.53846147;4333.71794893;4234.35897436;4436.79487222;2009.23076451;135.38460670;-0.00000896;3811.53846064;4333.07692329;4269.48717956;4302.56410271;4504.35897492;4240.51282052;4201.15384609;4205.12820506
4203.46153840;4203.84615378;4241.02564103;4234.87179488;4337.17948739;2008.07691836;229.99999153;-0.00000896;3811.92307602;4304.35897450;4234.61538462;4304.23076937;4401.28205163;4240.38461539;4176.28205115;4205.12820506
4204.35897429;4202.69230763;4405.89743625;4234.10256411;4500.76923133;2007.82050810;135.38460670;-0.00000896;3810.51281961;4332.69230790;4401.79487215;4304.10256425;4763.58974471;4240.64102564;4201.41025634;4205.12820506
4203.33333327;4203.84615378;4368.58974387;4235.89743590;4503.84615441;2003.84614912;229.99999153;-0.00000896;3812.56410166;4307.30769245;4271.79487187;4302.56410271;4436.02564145;4240.25641026;4175.25641012;4205.12820506
4202.94871788;4202.56410250;4302.94871809;4237.05128206;4402.56410292;2007.43589271;135.38460670;-0.00000896;3813.46153756;4305.76923091;4268.46153853;4305.25641040;4596.15384692;4241.79487180;4201.53846147;4205.12820506
4202.43589737;4202.56410250;4337.56410278;4237.43589744;4401.53846189;2008.07691836;229.99999153;-0.00000896;3812.94871705;4307.43589758;4235.00000000;4305.76923091;4470.12820562;4240.38461539;4201.28205122;4205.12820506
4203.58974352;4203.71794865;4173.07692294;4238.58974359;4272.30769238;2036.53845689;135.38460670;-0.00000896;3809.87179397;4303.20512835;4176.15384602;4304.48717963;4404.61538497;4240.12820513;4201.28205122;4205.12820506
4202.94871788;4203.33333327;4498.84615441;4237.69230770;4535.51282114;2007.43589271;229.99999153;-0.00000896;3810.25640936;4307.30769245;4398.33333368;4303.71794886;4635.25641109;4240.25641026;4175.38461525;4205.12820506
4203.97435891;4203.58974352;4335.89743611;4238.84615385;4468.07692357;2004.99999528;135.38460670;-0.00000896;3782.05128108;4305.12820527;4208.71794865;4302.69230784;4436.02564145;4241.15384616;4201.02564096;4205.12820506
4202.94871788;4203.46153840;4334.61538483;4238.07692308;4400.00000035;2006.41025169;229.99999153;-0.00000896;3782.05128108;4306.41025655;4267.30769238;4304.61538476;4567.56410326;4239.87179488;4175.89743576;4205.12820506
4204.61538455;4202.43589737;4240.64102564;4236.15384616;4332.94871816;2007.69230297;8241.92308540;-0.00000896;3778.97435801;4303.20512835;4234.10256411;4300.89743604;4532.56410319;4240.00000000;4175.89743576;4205.12820506
4205.38461532;4202.43589737;4270.76923084;4236.15384616;4400.00000035;1977.17948239;105.89742715;-0.00000896;3781.66666570;4305.38461553;4300.12820527;4301.53846168;4464.74359023;4266.79487187;4201.28205122;4205.12820506
4204.87179481;4202.69230763;4438.58974401;4235.76923077;4500.76923133;1976.41025162;8241.66667515;-0.00000896;3779.74358877;4305.51282066;4302.94871809;4302.82051296;4797.05128324;4240.51282052;4174.10256397;4205.12820506
4204.87179481;4203.33333327;4300.38461553;4235.00000000;4372.94871823;2002.82050810;229.99999153;-0.00000896;3781.15384518;4334.48717970;4367.43589772;4302.94871809;4465.00000049;4239.48717949;4201.28205122;4205.12820506
4205.25641019;4202.05128199;4371.02564131;4236.92307693;4398.20512856;2006.53845682;229.99999153;-0.00000896;3780.89743493;4304.10256425;4271.53846161;4300.12820527;4563.97435967;4241.02564103;4201.41025634;4205.12820506
4206.02564096;4202.17948711;4234.10256411;4235.12820513;4365.12820541;2007.43589271;229.99999153;-0.00000896;3779.87179390;4302.56410271;4175.76923063;4302.82051296;4471.66666716;4238.58974359;4201.15384609;4205.12820506
4207.05128199;4201.53846147;4405.25641061;4209.10256404;4534.23076986;2006.15384143;229.99999153;-0.00000896;3779.74358877;4304.87179501;4370.64102592;4302.69230784;4599.87179564;4239.61538462;4201.28205122;4205.12820506
4206.41025634;4202.43589737;4367.05128233;4234.35897436;4369.35897464;2006.02563630;-0.00000896;-0.00000896;3781.92307595;4303.46153860;4303.97435912;4303.71794886;4498.46153902;4240.38461539;4201.28205122;4205.12820506
4205.89743583;4203.07692301;4306.41025655;4208.97435891;4437.43589786;2002.94871323;-0.00000896;-0.00000896;3808.33333243;4305.51282066;4203.07692301;4302.43589758;4567.69230839;4241.02564103;4176.02564089;4205.12820506
4206.15384609;4202.30769224;4301.41025655;4235.64102564;4339.61538483;2002.82050810;-0.00000896;-0.00000896;3809.35897346;4333.33333355;4306.66666681;4303.20512835;4500.25641082;4240.12820513;4202.56410250;4205.12820506
4205.89743583;4202.43589737;4234.74358975;4233.97435898;4332.56410278;2008.33332861;-0.00000896;-0.00000896;3808.71794782;4307.30769245;4136.66666646;4305.38461553;4469.87179536;4241.15384616;4201.79487173;4205.12820506
4205.64102558;4202.94871788;4468.07692357;4235.76923077;4467.82051331;2008.71794400;-0.00000896;-0.00000896;3808.71794782;4305.38461553;4465.38461587;4303.84615399;4667.43589834;4239.61538462;4202.30769224;4205.12820506
4205.38461532;4203.71794865;4337.30769252;4235.51282052;4366.15384644;2009.87179015;-0.00000896;-0.00000896;3808.97435807;4333.07692329;4204.35897429;4303.84615399;4536.41025704;4240.12820513;4201.15384609;4205.12820506
4205.12820506;4203.71794865;4340.00000021;4236.15384616;4431.79487222;2009.74358502;-0.00000896;-0.00000896;3810.51281961;4305.51282066;4271.28205136;4302.43589758;4530.76923140;4241.15384616;4173.84615371;4205.12820506
4204.87179481;4204.35897429;4269.61538469;4234.74358975;4337.05128226;2008.58973887;-0.00000896;-0.00000896;3809.23076833;4334.35897457;4272.30769238;4303.46153860;4501.28205184;4240.51282052;4176.15384602;4205.12820506
4205.38461532;4202.56410250;4240.00000000;4237.17948718;4337.82051303;2006.02563630;-0.00000896;-0.00000896;3807.94871705;4334.23076944;4110.25640998;4302.05128219;4601.02564179;4240.89743590;4201.02564096;4205.12820506
4204.99999993;4202.17948711;4468.97435946;4236.28205129;4599.74359051;2006.79486707;-0.00000896;-0.00000896;3808.58974269;4305.25641040;4403.84615420;4303.46153860;4694.48718046;4240.76923077;4201.28205122;4205.12820506
4204.48717942;4203.20512814;4268.20512828;4236.28205129;4303.20512835;2002.82050810;-0.00000896;-0.00000896;3782.30769134;4306.15384630;4236.28205129;4302.56410271;4502.30769287;4239.48717949;4201.15384609;4205.12820506
4205.12820506;4201.66666660;4306.79487194;4235.89743590;4402.94871830;2003.97435425;-0.00000896;-0.00000896;3808.33333243;4305.00000014;4267.69230777;4302.56410271;4536.15384678;4240.76923077;4176.28205115;4205.12820506
4202.94871788;4201.02564096;4333.20512842;4236.15384616;4337.56410278;2009.61537989;-0.00000896;-0.00000896;3781.79487083;4306.79487194;4173.07692294;4303.97435912;4471.28205177;4240.12820513;4201.28205122;4205.12820506
4203.20512814;4176.28205115;4366.41025669;4235.38461539;4496.79487235;2006.53845682;-0.00000896;-0.00000896;3780.25640929;4303.20512835;4433.97435940;4302.94871809;4469.74359023;4240.38461539;4201.66666660;4205.12820506
4204.74358968;4201.79487173;4400.25641061;4208.97435891;4433.58974401;1975.25640547;-0.00000896;-0.00000896;3779.99999903;4305.12820527;4236.79487180;4301.41025655;4731.15384720;4237.82051282;4176.28205115;4205.12820506
4204.35897429;4202.05128199;4305.51282066;4234.23076923;4437.56410298;2009.23076451;-0.00000896;-0.00000896;3779.87179390;4306.15384630;4399.10256445;4303.97435912;4501.02564159;4239.61538462;4174.23076910;4205.12820506
4204.10256404;4203.20512814;4335.38461560;4233.97435898;4434.23076965;2036.66666201;-0.00000896;-0.00000896;3779.61538365;4301.66666681;4236.79487180;4305.89743604;4503.46153902;4240.38461539;4201.28205122;4205.12820506
4204.99999993;4203.71794865;4238.33333334;4233.84615385;4303.20512835;2003.58973887;-0.00000896;-0.00000896;3807.94871705;4302.17948732;4139.48717928;4302.17948732;4464.61538511;4239.87179488;4201.02564096;4205.12820506
4206.02564096;4203.71794865;4497.05128261;4208.84615378;4531.28205191;1974.74358495;-0.00000896;-0.00000896;3811.66666577;4307.43589758;4371.28205156;4302.17948732;4663.71794963;4239.87179488;4201.41025634;4205.12820506
4204.61538455;4202.69230763;4301.02564117;4233.97435898;4370.89743618;2004.23076451;-0.00000896;-0.00000896;3809.99999910;4303.58974373;4237.94871795;4302.94871809;4535.38461601;4241.02564103;4201.92307686;4205.12820506
4203.84615378;4202.94871788;4371.79487208;4209.10256404;4499.61538518;2007.30768759;-0.00000896;-0.00000896;3780.64102467;4302.69230784;4238.84615385;4304.87179501;4565.89743660;4239.87179488;4176.28205115;4205.12820506
4205.25641019;4203.33333327;4273.20512828;4234.35897436;4373.20512849;2003.97435425;-0.00000896;-0.00000896;3779.87179390;4302.94871809;4304.74358989;4303.58974373;4498.58974415;4241.53846154;4175.76923063;4205.12820506
4206.79487173;4202.05128199;4206.02564096;4234.74358975;4273.33333341;2004.10255938;-0.00000896;-0.00000896;3782.17948621;4332.43589765;4170.38461525;4304.61538476;4535.76923140;4240.38461539;4201.41025634;4205.12820506
4205.38461532;4203.07692301;4602.43589820;4233.97435898;4762.82051394;2005.89743118;-0.00000896;-0.00000896;3782.05128108;4304.61538476;4435.12820555;4303.46153860;4595.25641102;4239.23076923;4201.15384609;4205.12820506
4206.53846147;4202.17948711;4204.99999993;4234.10256411;4267.30769238;2005.38461066;229.99999153;-0.00000896;3807.82051192;4333.97435919;4207.43589737;4303.58974373;4562.82051352;4238.58974359;4201.02564096;4205.12820506
4205.51282045;4203.71794865;4373.20512849;4208.58974352;4533.46153909;2008.07691836;8276.92308547;-0.00000896;3807.82051192;4304.10256425;4240.89743590;4302.94871809;4563.33333403;4240.89743590;4176.15384602;4205.12820506
4206.53846147;4201.41025634;4268.46153853;4234.48717949;4338.07692329;2008.84614912;8309.87180349;-0.00000896;3810.76922987;4301.15384630;4269.48717956;4300.89743604;4497.82051338;4240.64102564;4203.20512814;4205.12820506
4204.35897429;4203.33333327;4274.61538469;4208.71794865;4336.28205149;2009.10255938;8212.82052123;-0.00000896;3812.17948628;4332.43589765;4240.38461539;4304.10256425;4534.23076986;4241.15384616;4176.28205115;4205.12820506
4203.84615378;4203.46153840;4464.10256459;4234.48717949;4499.48718005;2008.33332861;229.99999153;-0.00000896;3812.05128115;4304.35897450;4372.56410285;4302.30769245;4600.25641102;4240.25641026;4176.28205115;4205.12820506
4203.20512814;4203.07692301;4266.79487187;4235.00000000;4338.46153867;2006.66666195;229.99999153;-0.00000896;3811.66666577;4305.64102578;4208.20512814;4303.58974373;4531.79487242;4241.15384616;4201.02564096;4205.12820506
4203.46153840;4202.94871788;4370.64102592;4236.92307693;4432.69230811;2004.61537989;229.99999153;-0.00000896;3810.76922987;4304.10256425;4204.61538455;4304.74358989;4530.51282114;4238.33333334;4202.17948711;4205.12820506
4203.46153840;4202.56410250;4239.10256411;4235.51282052;4338.46153867;2007.56409784;229.99999153;-0.00000896;3808.20512731;4307.30769245;4172.94871781;4305.12820527;4405.25641061;4240.38461539;4201.15384609;4205.12820506
4204.23076917;4202.82051275;4434.10256452;4236.79487180;4469.10256459;2009.48717477;229.99999153;-0.00000896;3782.17948621;4332.94871816;4338.97435919;4302.56410271;4662.69230860;4239.48717949;4175.25641012;4205.12820506
4205.12820506;4202.56410250;4371.66666695;4235.89743590;4471.15384664;2009.87179015;229.99999153;-0.00000896;3808.46153756;4305.25641040;4337.05128226;4304.23076937;4466.53846203;4240.25641026;4176.28205115;4205.12820506
4204.87179481;4202.69230763;4368.46153874;4236.02564103;4403.46153881;2004.99999528;229.99999153;-0.00000896;3810.25640936;4335.64102585;4236.15384616;4300.25641040;4633.20512904;4240.76923077;4201.41025634;4205.12820506
4205.51282045;4175.89743576;4303.71794886;4236.41025641;4436.53846196;2007.69230297;229.99999153;-0.00000896;3808.20512731;4306.66666681;4269.61538469;4303.71794886;4496.79487235;4240.64102564;4201.02564096;4205.12820506
4204.74358968;4202.43589737;4302.05128219;4234.87179488;4371.28205156;2008.20512348;229.99999153;-0.00000896;3780.89743493;4302.43589758;4141.53846133;4303.07692322;4433.84615427;4241.66666667;4201.15384609;4205.12820506
4205.38461532;4201.66666660;4470.89743639;4236.28205129;4562.43589813;2005.38461066;229.99999153;-0.00000896;3781.41025544;4303.46153860;4401.53846189;4303.33333348;4763.20512932;4267.05128212;4201.41025634;4205.12820506
4204.48717942;4203.07692301;4271.79487187;4235.64102564;4405.25641061;2005.76922605;229.99999153;-0.00000896;3808.71794782;4334.35897457;4235.00000000;4302.94871809;4370.25641054;4241.41025641;4176.28205115;4205.12820506
4204.87179481;4203.46153840;4365.64102592;4235.25641026;4430.89743632;2004.74358502;229.99999153;-0.00000896;3808.20512731;4305.64102578;4235.76923077;4304.23076937;4602.05128282;4241.53846154;4201.02564096;4205.12820506
4206.15384609;4202.30769224;4273.33333341;4234.74358975;4406.02564138;2006.66666195;229.99999153;-0.00000896;3808.46153756;4303.71794886;4236.15384616;4303.33333348;4496.92307748;4241.41025641;4201.28205122;4205.12820506
4204.61538455;4203.07692301;4236.28205129;4235.38461539;4271.66666674;2003.97435425;229.99999153;-0.00000896;3808.20512731;4307.05128219;4137.05128185;4302.17948732;4497.56410312;4240.12820513;4175.38461525;4205.12820506
4204.87179481;4202.56410250;4438.58974401;4234.10256411;4535.51282114;2007.56409784;229.99999153;-0.00000896;3807.43589654;4306.02564117;4400.12820548;4305.76923091;4627.69230853;4240.12820513;4201.02564096;4205.12820506
4203.71794865;4203.33333327;4240.64102564;4235.25641026;4307.30769245;2005.12820041;229.99999153;-0.00000896;3782.05128108;4302.17948732;4241.79487180;4304.10256425;4502.82051338;4240.76923077;4201.28205122;4205.12820506
4204.87179481;4202.30769224;4370.00000028;4234.35897436;4436.66666709;2005.25640554;229.99999153;-0.00000896;3808.07692218;4304.23076937;4168.97435884;4300.12820527;4471.28205177;4240.89743590;4176.15384602;4205.12820506
4205.76923070;4203.20512814;4207.56410250;4233.84615385;4301.41025655;2007.43589271;229.99999153;-0.00000896;3807.56410166;4302.82051296;4238.20512821;4302.30769245;4436.66666709;4241.15384616;4202.43589737;4205.12820506
4204.99999993;4202.69230763;4401.41025676;4234.87179488;4468.97435946;2005.76922605;229.99999153;-0.00000896;3808.71794782;4306.66666681;4234.74358975;4301.15384630;4535.76923140;4241.53846154;4176.28205115;4205.12820506
4206.41025634;4202.17948711;4404.61538497;4234.35897436;4501.02564159;2005.51281579;229.99999153;-0.00000896;3808.07692218;4307.30769245;4303.84615399;4304.23076937;4566.66666737;4240.38461539;4176.28205115;4205.12820506
4206.02564096;4201.79487173;4334.10256431;4235.51282052;4399.74359009;2007.94871323;229.99999153;-0.00000896;3808.84615295;4306.41025655;4271.41025648;4304.48717963;4563.71794942;4241.28205129;4175.89743576;4205.12820506
4206.79487173;4202.69230763;4339.87179508;4234.74358975;4398.33333368;2007.94871323;229.99999153;-0.00000896;3808.84615295;4306.41025655;4267.82051289;4301.66666681;4530.25641089;4241.53846154;4201.02564096;4205.12820506
4205.51282045;4202.43589737;4204.74358968;4235.51282052;4333.20512842;2008.07691836;229.99999153;-0.00000896;3809.35897346;4303.20512835;4202.30769224;4300.76923091;4433.84615427;4267.30769238;4201.02564096;4205.12820506
4204.61538455;4203.33333327;4531.79487242;4235.12820513;4567.17948788;2007.05127733;229.99999153;-0.00000896;3811.28205038;4304.35897450;4367.05128233;4304.74358989;4663.71794963;4241.66666667;4176.28205115;4205.12820506
4204.61538455;4203.07692301;4238.33333334;4236.28205129;4369.87179515;2009.48717477;229.99999153;-0.00000896;3809.99999910;4304.74358989;4338.58974380;4304.87179501;4467.05128254;4266.79487187;4176.02564089;4205.12820506
4204.61538455;4204.10256404;4437.05128247;4235.25641026;4531.15384678;2005.12820041;229.99999153;-0.00000896;3807.56410166;4305.12820527;4235.76923077;4302.94871809;4562.43589813;4239.10256411;4201.41025634;4205.12820506
4203.71794865;4203.97435891;4340.38461560;4236.92307693;4432.43589786;2003.71794400;229.99999153;-0.00000896;3808.97435807;4306.92307707;4274.23076930;4302.05128219;4498.84615441;4267.43589751;4201.41025634;4205.12820506
4204.48717942;4202.94871788;4173.58974345;4235.89743590;4238.20512821;2004.99999528;229.99999153;-0.00000896;3782.43589647;4334.48717970;4240.64102564;4303.07692322;4463.58974408;4240.38461539;4176.02564089;4205.12820506
4204.35897429;4202.56410250;4470.12820562;4235.38461539;4530.25641089;2006.41025169;229.99999153;-0.00000896;3780.76922980;4306.02564117;4371.15384644;4304.23076937;4668.20512911;4266.79487187;4201.02564096;4205.12820506
4203.97435891;4201.41025634;4300.38461553;4235.89743590;4430.76923119;2002.56409784;229.99999153;-0.00000896;3808.71794782;4332.56410278;4236.66666667;4305.00000014;4436.41025683;4241.53846154;4201.15384609;4205.12820506
4203.33333327;4201.66666660;4334.61538483;4235.89743590;4372.56410285;2007.05127733;229.99999153;-0.00000896;3781.79487083;4302.69230784;4270.51282059;4305.38461553;4566.92307762;4240.00000000;4176.02564089;4205.12820506
4205.12820506;4202.30769224;4305.76923091;4236.28205129;4366.92307720;2008.07691836;229.99999153;-0.00000896;3779.35897339;4301.53846168;4272.43589751;4305.00000014;4498.20512876;4241.15384616;4201.66666660;4205.12820506
4205.25641019;4203.33333327;4304.23076937;4235.12820513;4404.23076958;2008.84614912;229.99999153;-0.00000896;3777.43589647;4332.56410278;4107.30769203;4303.58974373;4602.94871872;4239.74358975;4175.89743576;4205.12820506
4204.87179481;4204.87179481;4464.10256459;4234.48717949;4564.23076993;2005.12820041;8245.12821361;-0.00000896;3781.41025544;4305.51282066;4340.12820534;4304.48717963;4596.02564179;4239.61538462;4175.64102551;4205.12820506
4206.02564096;4203.33333327;4270.12820520;4234.48717949;4367.05128233;2002.82050810;8244.61539310;-0.00000896;3809.48717859;4302.30769245;4299.87179501;4305.12820527;4502.69230825;4240.38461539;4201.15384609;4205.12820506
4204.35897429;4203.20512814;4333.97435919;4235.51282052;4339.10256431;1975.25640547;229.99999153;-0.00000896;3809.48717859;4305.12820527;4332.94871816;4304.61538476;4503.46153902;4240.12820513;4201.15384609;4205.12820506
4204.87179481;4203.20512814;4237.43589744;4234.10256411;4339.87179508;2003.58973887;8244.61539310;-0.00000896;3807.82051192;4306.02564117;4206.53846147;4306.02564117;4467.82051331;4239.35897436;4201.15384609;4205.12820506
4204.61538455;4203.07692301;4433.58974401;4236.02564103;4534.23076986;2007.17948246;-0.00000896;-0.00000896;3780.76922980;4333.20512842;4367.69230797;4301.79487194;4601.02564179;4240.76923077;4202.17948711;4205.12820506
4205.89743583;4202.69230763;4334.35897457;4234.74358975;4339.61538483;2008.71794400;-0.00000896;-0.00000896;3780.12820416;4332.43589765;4304.10256425;4303.46153860;4497.43589800;4240.38461539;4201.53846147;4205.12820506
4205.12820506;4202.94871788;4337.05128226;4236.02564103;4437.43589786;2005.76922605;-0.00000896;-0.00000896;3807.56410166;4302.30769245;4241.79487180;4302.05128219;4563.71794942;4240.12820513;4201.15384609;4205.12820506
4205.38461532;4202.82051275;4400.12820548;4234.74358975;4369.87179515;2006.79486707;-0.00000896;-0.00000896;3782.05128108;4306.79487194;4269.10256418;4304.74358989;4530.38461601;4240.25641026;4201.41025634;4205.12820506
4205.51282045;4203.07692301;4139.10256390;4233.97435898;4301.79487194;2035.12820048;-0.00000896;-0.00000896;3781.92307595;4304.35897450;4238.71794872;4304.48717963;4402.69230804;4238.97435898;4175.12820499;4205.12820506
4206.15384609;4202.43589737;4666.41025732;4234.61538462;4634.87179571;2007.82050810;-0.00000896;-0.00000896;3807.56410166;4304.87179501;4365.25641054;4302.30769245;4761.02564214;4239.87179488;4201.15384609;4205.12820506
4205.25641019;4202.82051275;4202.69230763;4208.84615378;4306.53846168;2006.28204656;-0.00000896;-0.00000896;3808.97435807;4333.58974380;4337.82051303;4306.66666681;4431.15384657;4240.38461539;4201.02564096;4205.12820506
4204.74358968;4203.58974352;4403.84615420;4208.97435891;4431.15384657;2009.10255938;-0.00000896;-0.00000896;3809.48717859;4300.89743604;4233.97435898;4303.71794886;4628.58974443;4241.53846154;4176.28205115;4205.12820506
4204.48717942;4203.84615378;4273.07692315;4235.00000000;4435.25641068;2004.74358502;-0.00000896;-0.00000896;3811.02564013;4305.89743604;4235.89743590;4304.10256425;4501.66666723;4241.66666667;4201.02564096;4205.12820506
4203.97435891;4203.46153840;4208.33333327;4234.61538462;4237.05128206;2003.58973887;-0.00000896;-0.00000896;3810.51281961;4305.64102578;4173.07692294;4301.92307707;4498.97435953;4239.61538462;4202.94871788;4205.12820506
4204.23076917;4203.07692301;4468.58974408;4234.74358975;4596.15384692;2007.69230297;-0.00000896;-0.00000896;3808.07692218;4304.35897450;4371.15384644;4301.92307707;4600.12820590;4240.51282052;4201.15384609;4205.12820506
