Gyro-X;Gyro-Z;AF3;Gyro-Y;T7;Acc-X;Pz;QualityData_1;QualityData_2;Acc-Z;Acc-Y;T8;Mag-X;AF4;Mag-Z;Mag-Y;Mag-X;Gyro-X 
4202.56410250;4201.79487173;5095.25641207;4235.64102564;3913.58974290;2169.23076486;-0.00000896;-0.00000896;3317.94871601;4207.17948711;3413.71794698;4300.64102578;3388.20512640;4274.48717956;4175.38461525;4205.12820506
4201.41025634;4202.82051275;5191.53846356;4235.76923077;3649.87179362;2170.89743152;229.99999153;-0.00000896;3318.84615190;4205.25641019;3583.58974220;4299.87179501;3349.10256223;4300.12820527;4174.48717935;4205.12820506
4175.64102551;4202.69230763;5324.87179717;4235.89743590;3777.30769134;2172.69230332;-0.00000896;-0.00000896;3315.12820319;4205.64102558;3287.30769030;4303.20512835;3386.15384435;4274.48717956;4173.58974345;4172.30769217
4202.05128199;4204.61538455;5388.58974603;4237.82051282;3714.48717838;2172.43589306;229.99999153;-0.00000896;3288.20512619;4233.97435898;3352.82051095;4301.53846168;3414.48717775;4274.74358982;4174.61538448;4205.12820506
4202.69230763;4207.43589737;5154.48718144;4238.07692308;3614.87179356;2168.46153409;-0.00000896;-0.00000896;3287.69230568;4236.79487180;3387.94871615;4302.82051296;3381.92307512;4273.97435905;4175.25641012;4205.12820506
4203.84615378;4207.82051275;5253.84615600;4238.97435898;3646.53846029;2171.53845716;229.99999153;-0.00000896;3284.23076722;4239.74358975;3453.97435731;4302.56410271;3287.43589542;4274.74358982;4174.74358961;4205.12820506
4203.71794865;4208.58974352;5220.89743799;4237.82051282;3648.46153721;2170.76922640;-0.00000896;-0.00000896;3286.53845953;4233.84615385;3316.28204934;4302.30769245;3353.84615197;4274.61538469;4174.99999986;4205.12820506
4203.97435891;4206.53846147;5127.17948906;4235.25641026;3748.07692204;2168.33332896;229.99999153;-0.00000896;3286.41025440;4208.71794865;3546.41025495;4301.66666681;3354.87179300;4300.00000014;4174.23076910;4205.12820506
4204.61538455;4205.76923070;5450.89743847;4234.87179488;3519.61538309;2169.61538024;-0.00000896;-0.00000896;3288.71794671;4235.64102564;3350.38461351;4302.43589758;3283.58974158;4299.87179501;4174.87179474;4205.12820506
4203.84615378;4206.15384609;5120.00000188;4235.89743590;3682.56410139;2168.97435460;229.99999153;-0.00000896;3287.94871594;4207.17948711;3484.61538302;4302.69230784;3319.61538267;4299.61538476;4174.87179474;4205.12820506
4203.97435891;4205.89743583;5192.43589945;4234.35897436;3512.69230617;2172.56409819;-0.00000896;-0.00000896;3285.89743389;4236.53846154;3386.66666486;4302.05128219;3385.38461358;4300.00000014;4175.25641012;4205.12820506
4205.12820506;4206.28205122;5095.00000181;4235.25641026;3712.05128094;2171.28204691;229.99999153;-0.00000896;3287.30769030;4233.84615385;3448.33333167;4301.79487194;3416.41025468;4273.97435905;4174.74358961;4205.12820506
4205.51282045;4208.07692301;5418.46154097;4234.35897436;3584.35897297;2168.33332896;-0.00000896;-0.00000896;3289.99999799;4268.07692315;3316.53845960;4302.43589758;3381.92307512;4299.61538476;4174.87179474;4205.12820506
4206.15384609;4207.69230763;5120.38461726;4234.10256411;3613.84615253;2171.79486742;229.99999153;-0.00000896;3317.56410062;4237.43589744;3485.64102405;4304.74358989;3447.69230603;4273.84615392;4201.53846147;4205.12820506
4203.84615378;4207.94871788;5286.79487402;4236.02564103;3680.25640908;2169.61538024;-0.00000896;-0.00000896;3318.20512626;4237.82051282;3512.43589591;4302.30769245;3382.69230589;4274.10256418;4174.74358961;4205.12820506
4202.94871788;4208.84615378;5220.38461747;4235.25641026;3746.92307588;2171.92307255;229.99999153;-0.00000896;3317.82051088;4235.12820513;3382.56410076;4300.38461553;3611.15384484;4300.12820527;4175.12820499;4205.12820506
4202.17948711;4209.10256404;5355.00000237;4236.79487180;3811.53846064;2173.07691870;-0.00000896;-0.00000896;3316.02563908;4240.12820513;3347.69230582;4300.89743604;3285.38461337;4273.84615392;4174.48717935;4205.12820506
4202.05128199;4208.71794865;5095.25641207;4235.64102564;3847.82051199;2199.10255980;229.99999153;-0.00000896;3315.89743396;4266.92307700;3448.33333167;4302.43589758;3383.84615204;4274.61538469;4201.28205122;4205.12820506
4202.17948711;4235.64102564;5420.51282302;4236.66666667;3676.66666549;2173.71794434;-0.00000896;-0.00000896;3316.28204934;4236.53846154;3446.79487013;4302.82051296;3416.28204955;4274.48717956;4202.17948711;4205.12820506
4202.17948711;4236.28205129;5061.02564277;4237.05128206;3813.71794782;2174.23076486;-0.00000896;-0.00000896;3315.89743396;4241.28205129;3451.15384449;4301.79487194;3415.64102391;4273.71794879;4175.64102551;4205.12820506
4202.69230763;4238.07692308;5193.20513022;4238.20512821;3547.94871649;2170.38461101;-0.00000896;-0.00000896;3289.35897235;4240.64102564;3453.20512654;4300.25641040;3352.30769044;4273.97435905;4175.76923063;4205.12820506
4201.41025634;4236.92307693;5123.07692496;4237.69230770;3513.84615232;2166.15384178;229.99999153;-0.00000896;3289.74358773;4268.33333341;3352.30769044;4301.15384630;3191.41025419;4274.61538469;4174.99999986;4205.12820506
4201.79487173;4235.25641026;5451.28205386;4238.07692308;3716.66666556;2168.84614947;229.99999153;-0.00000896;3288.46153645;4273.20512828;3386.92307512;4300.89743604;3420.76922904;4274.74358982;4202.56410250;4205.12820506
4176.28205115;4234.10256411;5094.74359155;4236.66666667;3807.56410166;2168.58973922;229.99999153;-0.00000896;3287.94871594;4270.00000007;3479.10256251;4300.76923091;3386.66666486;4274.23076930;4175.25641012;4172.30769217
4202.82051275;4208.58974352;5253.33333549;4237.94871795;3777.69230672;2168.71794434;229.99999153;-0.00000896;3287.56410055;4273.20512828;3548.58974213;4300.51282066;3385.51281871;4301.66666681;4175.89743576;4205.12820506
4202.69230763;4233.84615385;5251.79487395;4238.71794872;3741.53846050;2170.38461101;-0.00000896;-0.00000896;3315.12820319;4268.07692315;3322.05128011;4302.17948732;3382.05128025;4300.12820527;4175.89743576;4205.12820506
4201.66666660;4208.20512814;5323.71795101;4238.46153847;3677.82051164;2141.28204684;-0.00000896;-0.00000896;3315.38461344;4269.74358982;3320.51281857;4301.41025655;3350.76922890;4274.23076930;4175.76923063;4205.12820506
4201.92307686;4206.53846147;5122.30769419;4239.48717949;3647.56410132;2168.71794434;-0.00000896;-0.00000896;3316.53845960;4271.92307700;3352.30769044;4301.28205142;3387.69230589;4274.23076930;4175.89743576;4205.12820506
4202.17948711;4204.61538455;5352.30769467;4237.82051282;3874.23076847;2199.61538031;-0.00000896;-0.00000896;3287.30769030;4300.12820527;3453.20512654;4273.58974366;3419.23076750;4299.48717963;4175.89743576;4205.12820506
4202.56410250;4205.89743583;5155.89743785;4237.69230770;3582.56410118;2199.10255980;-0.00000896;-0.00000896;3286.92307491;4270.38461546;3382.43589563;4301.15384630;3353.46153659;4301.79487194;4175.38461525;4205.12820506
4201.66666660;4204.74358968;5157.05128400;4236.53846154;3580.51281913;2167.82050845;-0.00000896;-0.00000896;3288.46153645;4274.61538469;3452.94871628;4274.35897443;3317.30769037;4274.61538469;4176.15384602;4205.12820506
4201.53846147;4204.10256404;5390.12820756;4236.28205129;3647.56410132;2167.56409819;-0.00000896;-0.00000896;3286.53845953;4268.58974366;3349.10256223;4299.87179501;3487.05128046;4300.51282066;4175.76923063;4205.12820506
4203.46153840;4204.74358968;5356.02564339;4236.41025641;3880.51281975;2168.33332896;-0.00000896;-0.00000896;3285.12820312;4274.74358982;3481.15384456;4300.38461553;3450.25640859;4301.66666681;4175.64102551;4205.12820506
4203.71794865;4204.48717942;5190.38461740;4237.17948718;3710.38461428;2172.56409819;-0.00000896;-0.00000896;3283.58974158;4274.35897443;3420.12820339;4299.61538476;3450.64102398;4300.00000014;4175.89743576;4205.12820506
4204.48717942;4204.74358968;5153.71795067;4236.53846154;3715.76922966;2201.28204698;-0.00000896;-0.00000896;3283.97435696;4272.82051289;3547.30769085;4302.94871809;3420.38461365;4299.74358989;4176.15384602;4205.12820506
4204.10256404;4205.38461532;5325.00000230;4236.41025641;3778.20512724;2173.97435460;-0.00000896;-0.00000896;3285.89743389;4271.79487187;3288.07692107;4302.43589758;3349.87179300;4274.74358982;4173.33333320;4205.12820506
4204.35897429;4204.87179481;5154.74359169;4233.97435898;3682.69230651;2169.35896999;-0.00000896;-0.00000896;3286.53845953;4302.94871809;3512.56410104;4302.30769245;3384.35897256;4299.61538476;4176.02564089;4205.12820506
4203.46153840;4203.97435891;5223.20513029;4235.00000000;3584.48717810;2169.74358537;-0.00000896;-0.00000896;3286.02563901;4299.61538476;3449.48717782;4301.41025655;3353.97435710;4301.41025655;4174.74358961;4205.12820506
4204.35897429;4204.74358968;5287.43589966;4234.87179488;3814.99999910;2199.23076493;-0.00000896;-0.00000896;3285.38461337;4300.12820527;3416.15384442;4302.69230784;3322.56410062;4300.12820527;4175.51282038;4205.12820506
4204.74358968;4204.61538455;5219.61538670;4234.10256411;3643.71794747;2172.43589306;-0.00000896;-0.00000896;3283.20512619;4299.87179501;3349.61538274;4301.15384630;3350.76922890;4273.20512828;4175.76923063;4205.12820506
4205.12820506;4204.48717942;5126.15384803;4234.23076923;3479.10256251;2169.87179050;-0.00000896;-0.00000896;3283.97435696;4274.23076930;3420.64102391;4300.51282066;3286.15384414;4273.97435905;4175.89743576;4205.12820506
4206.02564096;4204.35897429;5450.76923334;4234.48717949;3649.35897311;2169.10255973;-0.00000896;-0.00000896;3287.69230568;4273.97435905;3420.89743416;4301.02564117;3481.02563943;4300.64102578;4175.76923063;4205.12820506
4205.89743583;4201.92307686;5089.10256591;4208.71794865;3842.05128122;2140.25640581;-0.00000896;-0.00000896;3288.58974158;4300.76923091;3354.87179300;4301.92307707;3482.43589584;4274.10256418;4173.71794858;4205.12820506
4206.15384609;4175.89743576;5218.97436106;4208.84615378;3546.66666521;2166.79486742;-0.00000896;-0.00000896;3289.48717748;4306.02564117;3486.53845994;4301.79487194;3350.38461351;4300.76923091;4175.64102551;4205.12820506
4205.25641019;4174.99999986;5158.20513015;4234.61538462;3618.20512689;2171.28204691;-0.00000896;-0.00000896;3315.76922883;4305.12820527;3283.58974158;4300.76923091;3451.41025475;4273.97435905;4176.02564089;4205.12820506
4204.10256404;4175.12820499;5390.25641269;4233.84615385;3647.30769106;2171.15384178;-0.00000896;-0.00000896;3316.15384421;4302.05128219;3382.17948538;4301.92307707;3352.17948531;4299.87179501;4175.64102551;4205.12820506
4203.07692301;4173.33333320;5120.38461726;4235.12820513;3714.23076812;2167.30768793;-0.00000896;-0.00000896;3315.12820319;4273.46153853;3383.46153666;4301.66666681;3420.76922904;4301.53846168;4176.28205115;4205.12820506
4201.92307686;4171.41025628;5321.28205358;4235.38461539;3973.71794817;2170.25640588;-0.00000896;-0.00000896;3315.89743396;4272.69230777;3448.71794705;4301.53846168;3386.15384435;4300.64102578;4175.76923063;4205.12820506
4201.53846147;4171.02564089;5255.51282267;4234.48717949;3676.92307575;2137.56409812;-0.00000896;-0.00000896;3289.99999799;4300.00000014;3418.46153673;4301.15384630;3516.02563950;4274.74358982;4175.51282038;4205.12820506
4201.66666660;4169.35897422;5355.76923314;4235.12820513;3647.69230645;2141.02563658;229.99999153;-0.00000896;3287.17948517;4272.69230777;3348.46153659;4301.02564117;3316.02563908;4274.61538469;4175.25641012;4205.12820506
4202.43589737;4168.33333320;5093.20513002;4234.74358975;3779.87179390;2169.23076486;3.33332437;-0.00000896;3286.28204927;4269.23076930;3320.89743396;4300.00000014;3386.66666486;4274.48717956;4174.74358961;4205.12820506
4202.82051275;4142.69230749;5417.69231020;4236.15384616;3613.84615253;2136.15384171;-0.00000896;-0.00000896;3288.33333132;4272.69230777;3452.43589577;4302.05128219;3420.12820339;4274.74358982;4174.99999986;4205.12820506
4202.43589737;4139.23076903;5121.02564291;4234.35897436;3814.74358884;2133.71794427;-0.00000896;-0.00000896;3315.89743396;4272.43589751;3415.12820339;4301.66666681;3414.87179314;4300.89743604;4175.25641012;4205.12820506
4201.66666660;4108.71794844;5158.58974554;4207.43589737;3544.87179342;2139.48717504;229.99999153;-0.00000896;3289.48717748;4270.64102571;3486.92307533;4302.17948732;3350.51281864;4300.51282066;4173.46153833;4205.12820506
4176.02564089;4109.10256383;5351.79487416;4207.82051275;3516.15384463;2170.51281614;229.99999153;-0.00000896;3285.38461337;4274.10256418;3251.28204920;4302.05128219;3285.12820312;4273.71794879;4175.38461525;4172.30769217
4202.82051275;4110.12820485;5218.97436106;4235.25641026;3712.69230658;2173.97435460;229.99999153;-0.00000896;3284.35897235;4240.51282052;3388.33333153;4299.61538476;3384.35897256;4299.61538476;4174.99999986;4205.12820506
4204.48717942;4136.28205108;5157.05128400;4234.48717949;3807.17948628;2171.53845716;229.99999153;-0.00000896;3286.02563901;4240.51282052;3446.66666500;4301.15384630;3414.10256237;4273.33333341;4175.25641012;4205.12820506
4205.76923070;4137.69230749;5252.17948934;4237.05128206;3712.43589633;2167.94871357;229.99999153;-0.00000896;3289.74358773;4237.69230770;3519.74358822;4303.46153860;3413.58974186;4274.74358982;4175.38461525;4205.12820506
4205.12820506;4137.43589723;5225.64102773;4235.76923077;3610.38461407;2166.41025204;229.99999153;-0.00000896;3318.33333139;4241.66666667;3318.33333139;4302.82051296;3289.48717748;4274.10256418;4174.74358961;4205.12820506
4204.35897429;4110.51282024;5158.07692503;4236.28205129;3446.28204962;2140.25640581;229.99999153;-0.00000896;3319.99999806;4239.48717949;3452.56410090;4302.82051296;3382.43589563;4273.58974366;4174.74358961;4205.12820506
4203.71794865;4109.23076896;5288.84615607;4234.74358975;3647.56410132;2168.71794434;229.99999153;-0.00000896;3318.84615190;4239.87179488;3386.53845974;4302.69230784;3482.56410097;4274.10256418;4174.61538448;4205.12820506
4203.20512814;4109.23076896;5354.10256647;4208.97435891;3879.35897360;2172.43589306;229.99999153;-0.00000896;3317.94871601;4239.74358975;3481.41025482;4301.66666681;3551.28204983;4273.46153853;4174.48717935;4205.12820506
4203.20512814;4109.35897408;5158.20513015;4233.97435898;3644.23076798;2172.30768793;229.99999153;-0.00000896;3316.15384421;4204.48717942;3385.51281871;4303.07692322;3348.84615197;4274.61538469;4174.61538448;4205.12820506
4202.94871788;4109.99999973;5153.33333528;4234.87179488;3708.71794761;2168.20512383;229.99999153;-0.00000896;3315.76922883;4208.20512814;3516.28204976;4301.02564117;3349.23076736;4299.87179501;4176.15384602;4205.12820506
4202.82051275;4110.51282024;5389.87179731;4234.48717949;3775.38461442;2168.07691870;229.99999153;-0.00000896;3318.33333139;4204.35897429;3318.97435703;4301.28205142;3417.56410083;4300.12820527;4173.33333320;4205.12820506
4202.69230763;4109.99999973;5288.84615607;4235.12820513;3647.82051157;2170.89743152;229.99999153;-0.00000896;3317.69230575;4204.35897429;3416.28204955;4302.69230784;3515.38461386;4273.46153853;4173.84615371;4205.12820506
4202.43589737;4109.87179460;5154.23077118;4236.53846154;3911.02564033;2169.99999563;229.99999153;-0.00000896;3316.02563908;4173.97435884;3421.02563929;4302.94871809;3354.23076736;4273.33333341;4173.46153833;4205.12820506
4202.30769224;4110.38461511;5186.28205330;4236.02564103;3716.53846043;2172.94871357;229.99999153;-0.00000896;3287.43589542;4175.25641012;3483.71794712;4303.84615399;3551.92307547;4274.48717956;4173.84615371;4205.12820506
4202.30769224;4110.12820485;5322.69230999;4236.02564103;3811.53846064;2199.99999570;229.99999153;-0.00000896;3288.33333132;4202.56410250;3290.12820312;4301.66666681;3286.28204927;4300.51282066;4173.71794858;4205.12820506
4202.43589737;4136.15384595;5154.61538656;4234.74358975;3748.97435794;2167.05127768;229.99999153;-0.00000896;3289.99999799;4176.02564089;3513.46153694;4300.89743604;3388.20512640;4300.89743604;4173.46153833;4205.12820506
4202.17948711;4136.66666646;5255.51282267;4234.74358975;3810.89743500;2140.25640581;229.99999153;-0.00000896;3289.74358773;4202.17948711;3451.28204962;4303.46153860;3418.84615211;4267.56410264;4169.99999986;4205.12820506
4201.41025634;4137.56410236;5252.43589959;4235.25641026;3742.82051178;2199.99999570;229.99999153;-0.00000896;3289.35897235;4172.30769217;3418.58974186;4302.82051296;3518.33333181;4299.74358989;4172.82051269;4205.12820506
4201.15384609;4138.71794851;5188.58974561;4235.12820513;3648.20512696;2171.92307255;229.99999153;-0.00000896;3287.94871594;4168.84615371;3353.97435710;4301.66666681;3288.97435696;4300.38461553;4173.07692294;4205.12820506
4175.12820499;4137.69230749;5126.92307880;4234.61538462;3709.48717838;2171.53845716;229.99999153;-0.00000896;3290.12820312;4168.33333320;3352.69230582;4301.53846168;3352.05128018;4299.48717963;4173.20512807;4172.30769217
4201.02564096;4137.30769210;5423.20513071;4207.17948711;3583.07692169;2137.82050838;229.99999153;-0.00000896;3316.02563908;4170.12820499;3415.38461365;4303.33333348;3381.15384435;4300.25641040;4172.30769217;4205.12820506
4175.25641012;4109.99999973;5094.87179668;4207.17948711;3651.02563978;2136.15384171;229.99999153;-0.00000896;3319.74358780;4171.02564089;3449.87179321;4303.20512835;3449.61538295;4273.58974366;4174.23076910;4172.30769217
4173.33333320;4109.35897408;5252.56410472;4208.58974352;3645.76922952;2138.84614940;229.99999153;-0.00000896;3318.97435703;4170.25641012;3449.61538295;4301.79487194;3382.94871615;4274.48717956;4172.82051269;4172.30769217
4173.97435884;4107.43589716;5259.23077139;4234.23076923;3578.20512682;2139.99999556;229.99999153;-0.00000896;3318.07692114;4169.87179474;3254.61538253;4300.76923091;3251.92307484;4300.12820527;4173.84615371;4172.30769217
4174.48717935;4104.10256383;5349.87179724;4234.48717949;3582.05128067;2167.82050845;229.99999153;-0.00000896;3316.41025447;4143.07692287;3382.30769050;4300.89743604;3382.69230589;4274.35897443;4172.30769217;4172.30769217
4173.84615371;4104.10256383;5121.66666855;4236.53846154;3679.10256293;2169.87179050;229.99999153;-0.00000896;3316.28204934;4138.46153826;3383.58974179;4300.89743604;3415.51281878;4273.07692315;4171.15384602;4172.30769217
4174.61538448;4102.69230742;5351.15384852;4234.87179488;3971.92307637;2172.56409819;229.99999153;-0.00000896;3316.92307498;4137.43589723;3447.56410090;4302.82051296;3417.69230596;4300.38461553;4172.17948704;4172.30769217
4174.35897422;4103.58974332;5126.79487367;4235.12820513;3775.76922980;2167.30768793;229.99999153;-0.00000896;3317.94871601;4137.30769210;3415.38461365;4301.28205142;3448.46153680;4301.15384630;4171.79487166;4172.30769217
4174.61538448;4077.43589709;5222.43589952;4208.71794865;3649.48717824;2166.28204691;229.99999153;-0.00000896;3317.82051088;4137.17948697;3321.92307498;4301.79487194;3320.25640831;4272.05128212;4171.53846140;4172.30769217
4174.61538448;4076.66666632;5120.51282239;4208.71794865;3677.82051164;2168.46153409;229.99999153;-0.00000896;3317.30769037;4138.58974339;3321.41025447;4302.30769245;3386.02563922;4273.97435905;4171.79487166;4172.30769217
4175.76923063;4076.28205094;5420.89743840;4234.10256411;3808.46153756;2171.41025204;229.99999153;-0.00000896;3288.20512619;4108.07692280;3448.71794705;4302.82051296;3450.51281885;4273.46153853;4171.41025628;4172.30769217
4176.15384602;4076.92307658;5122.82051470;4209.10256404;3742.56410153;2169.23076486;229.99999153;-0.00000896;3285.38461337;4077.69230735;3384.61538281;4303.46153860;3383.97435717;4299.87179501;4171.15384602;4172.30769217
4202.56410250;4076.79487145;5159.74359169;4208.46153840;3482.82051123;2139.48717504;-0.00000896;-0.00000896;3314.87179293;4076.02564068;3515.76922924;4303.58974373;3319.99999806;4274.35897443;4171.02564089;4205.12820506
4201.79487173;4076.02564068;5351.66666903;4234.23076923;3645.25640901;2171.41025204;-0.00000896;-0.00000896;3319.35897242;4074.99999966;3318.20512626;4302.56410271;3417.56410083;4272.56410264;4171.41025628;4205.12820506
4202.05128199;4075.64102530;5221.92307901;4208.58974352;3583.58974220;2170.76922640;229.99999153;-0.00000896;3320.51281857;4075.89743555;3384.48717768;4302.17948732;3448.97435731;4274.74358982;4169.99999986;4205.12820506
4201.02564096;4076.53846119;5156.66666862;4207.94871788;3683.33333216;2166.92307255;-0.00000896;-0.00000896;3319.87179293;4104.74358947;3414.23076750;4305.00000014;3382.69230589;4272.69230777;4170.12820499;4205.12820506
4175.25641012;4074.61538427;5252.05128421;4208.33333327;3809.87179397;2137.94871351;-0.00000896;-0.00000896;3319.74358780;4104.10256383;3446.28204962;4302.56410271;3387.05128025;4274.23076930;4170.25641012;4172.30769217
4174.99999986;4070.38461504;5251.41025857;4207.17948711;3612.30769099;2133.84614940;-0.00000896;-0.00000896;3319.99999806;4102.82051255;3321.02563908;4302.17948732;3317.94871601;4273.97435905;4170.25641012;4172.30769217
4174.10256397;4041.28205087;5125.76923265;4207.05128199;3450.25640859;2133.84614940;-0.00000896;-0.00000896;3319.99999806;4075.12820478;3447.43589577;4304.61538476;3354.61538274;4274.35897443;4170.89743576;4172.30769217
4174.87179474;4037.69230728;5422.56410507;4207.43589737;3617.43589612;2133.58973915;-0.00000896;-0.00000896;3322.05128011;4075.38461504;3223.33333118;4303.84615399;3447.05128039;4271.02564110;4169.61538448;4172.30769217
4173.97435884;4008.71794824;5160.76923272;4207.82051275;3648.84615260;2105.51281600;-0.00000896;-0.00000896;3350.64102377;4071.53846119;3383.46153666;4301.79487194;3519.23076771;4273.20512828;4169.10256397;4172.30769217
4170.89743576;4004.48717900;5191.28205330;4233.97435898;3811.15384525;2107.69230318;-0.00000896;-0.00000896;3351.15384428;4073.20512786;3511.92307540;4305.89743604;3320.12820319;4273.46153853;4168.97435884;4172.30769217
4171.28205115;3974.61538406;5121.41025829;4207.94871788;3581.53846015;2133.33332889;-0.00000896;-0.00000896;3288.46153645;4104.87179460;3288.20512619;4303.97435912;3318.33333139;4274.23076930;4141.28205108;4172.30769217
4171.92307679;3972.05128150;5422.30769481;4207.94871788;3612.05128073;2134.23076479;-0.00000896;-0.00000896;3286.79486978;4071.53846119;3385.89743409;4304.35897450;3380.89743409;4270.76923084;4168.46153833;4172.30769217
4175.76923063;3941.28205066;5093.46154027;4233.84615385;3709.99999889;2108.46153395;-0.00000896;-0.00000896;3317.82051088;4039.48717907;3348.46153659;4303.33333348;3479.87179328;4272.17948725;4143.46153826;4172.30769217
4175.12820499;3912.05128136;5189.87179689;4234.35897436;4010.12820465;2135.76922633;-0.00000896;-0.00000896;3320.89743396;4006.92307644;3512.82051130;4307.05128219;3382.43589563;4274.23076930;4143.33333313;4172.30769217
4175.38461525;3906.28205059;5155.64102759;4235.51282052;3713.46153735;2140.51281607;-0.00000896;-0.00000896;3321.28204934;3974.35897381;3352.94871608;4304.48717963;3513.71794719;4273.20512828;4141.79487159;4172.30769217
4201.28205122;3879.48717873;5322.56410486;4238.58974359;3645.12820388;2171.66666229;-0.00000896;-0.00000896;3315.89743396;3942.17948656;3320.12820319;4306.79487194;3315.25640831;4274.35897443;4141.66666646;4205.12820506
4204.48717942;3880.89743514;5127.69230957;4241.28205129;3712.94871684;2202.30768800;-0.00000896;-0.00000896;3316.66666472;3939.23076861;3448.46153680;4303.71794886;3384.10256230;4273.46153853;4141.28205108;4205.12820506
4206.41025634;3906.15384546;5390.51282295;4268.07692315;3616.92307561;2235.12820089;-0.00000896;-0.00000896;3318.58974165;3877.94871719;3414.61538288;4305.89743604;3418.07692134;4274.35897443;4141.02564082;4205.12820506
4207.69230763;3905.89743521;5090.89743771;4267.94871802;3708.97435787;2233.07691884;-0.00000896;-0.00000896;3319.35897242;3873.33333257;3448.33333167;4306.02564117;3413.97435724;4273.20512828;4140.12820492;4205.12820506
4208.33333327;3906.53846085;5192.69230971;4268.71794879;3552.69230624;2236.28204705;-0.00000896;-0.00000896;3285.76922876;3782.30769134;3386.28204948;4302.43589758;3352.30769044;4273.84615392;4139.74358954;4205.12820506
4236.28205129;3909.23076854;5093.58974540;4269.35897443;3485.51281892;2267.43589327;-0.00000896;-0.00000896;3251.53845946;3746.15384512;3384.87179307;4304.35897450;3188.07692086;4273.46153853;4138.84615364;4237.94871795
4241.15384616;3911.53846085;5452.82051540;4267.43589751;3614.99999868;2266.79486763;-0.00000896;-0.00000896;3257.17948510;3746.66666563;3381.66666486;4305.00000014;3420.89743416;4300.00000014;4137.69230749;4237.94871795
4267.56410264;3939.48717887;5095.25641207;4268.58974366;3745.38461435;2236.66666243;-0.00000896;-0.00000896;3318.20512626;3713.46153735;3420.76922904;4303.46153860;3386.92307512;4273.84615392;4138.07692287;4270.76923084
4266.79487187;3939.23076861;5252.05128421;4267.69230777;3747.05128101;2268.58973942;-0.00000896;-0.00000896;3322.43589549;3683.97435780;3420.12820339;4304.23076937;3381.66666486;4273.33333341;4136.66666646;4270.76923084
4238.84615385;3942.05128143;5257.56410472;4266.66666674;3774.35897339;2271.02563686;-0.00000896;-0.00000896;3318.84615190;3677.30769113;3322.05128011;4305.51282066;3450.12820346;4274.10256418;4136.66666646;4237.94871795
4238.20512821;3943.71794810;5321.66666896;4241.53846154;3615.38461407;2303.71794462;-0.00000896;-0.00000896;3289.61538260;3617.69230638;3351.28204941;4305.51282066;3380.64102384;4299.48717963;4136.15384595;4237.94871795
4238.84615385;3972.94871740;5122.94871983;4241.92307693;3712.94871684;2304.74358565;-0.00000896;-0.00000896;3287.30769030;3613.97435766;3417.43589570;4305.12820527;3421.02563929;4274.35897443;4135.89743569;4237.94871795
4240.51282052;3974.74358919;5324.48718178;4240.25641026;3716.02563992;2269.23076507;-0.00000896;-0.00000896;3316.41025447;3643.58974234;3513.84615232;4305.12820527;3485.38461379;4300.76923091;4135.76923056;4237.94871795
4239.87179488;3975.12820458;5157.94871990;4240.51282052;3644.23076798;2238.46153423;229.99999153;-0.00000896;3318.07692114;3614.10256279;3351.28204941;4306.79487194;3322.82051088;4274.61538469;4110.64102537;4237.94871795
4239.10256411;3973.58974304;5153.07692503;4240.38461539;3577.56410118;2265.76922660;229.99999153;-0.00000896;3288.46153645;3612.43589612;3413.33333160;4302.17948732;3351.28204941;4273.46153853;4110.12820485;4237.94871795
4241.92307693;3972.05128150;5417.82051533;4239.10256411;3611.66666535;2266.15384199;229.99999153;-0.00000896;3287.30769030;3610.89743458;3255.25640818;4301.15384630;3317.94871601;4301.02564117;4136.66666646;4237.94871795
4268.33333341;3972.30769176;5256.28205344;4239.74358975;3515.25640873;2238.07691884;229.99999153;-0.00000896;3317.05128011;3585.51281913;3385.89743409;4307.05128219;3451.02563936;4299.87179501;4109.35897408;4270.76923084
4270.25641033;3946.15384553;5156.53846349;4267.56410264;3776.92307595;2239.10255987;1.02563207;-0.00000896;3348.07692120;3580.76922938;3415.12820339;4304.35897450;3348.84615197;4274.48717956;4108.84615357;4270.76923084
4269.74358982;3944.23076861;5157.43589939;4273.97435905;3513.33333181;2269.74358558;105.51281176;-0.00000896;3318.84615190;3517.30769078;3414.48717775;4304.87179501;3383.20512640;4300.12820527;4108.58974332;4270.76923084
4268.97435905;3944.48717887;5354.74359211;4301.66666681;3741.66666563;2334.35897033;229.99999153;-0.00000896;3289.87179286;3518.20512668;3319.48717755;4302.56410271;3349.74358787;4300.00000014;4108.20512793;4270.76923084
4270.12820520;3946.02564040;5154.23077118;4300.12820527;3617.30769099;2334.87179085;105.51281176;-0.00000896;3286.41025440;3514.35897283;3382.05128025;4304.10256425;3416.41025468;4301.02564117;4107.56410229;4270.76923084
4271.53846161;3971.66666611;5189.23077125;4274.61538469;3776.53846057;2331.66666264;229.99999153;-0.00000896;3283.84615183;3485.89743430;3416.28204955;4303.33333348;3383.46153666;4299.74358989;4106.79487152;4270.76923084
4270.51282059;3946.53846092;5193.07692510;4272.69230777;3513.84615232;2304.10256001;105.51281176;-0.00000896;3287.94871594;3480.38461379;3419.10256237;4302.82051296;3315.89743396;4300.12820527;4105.25640998;4270.76923084
4270.64102571;3943.97435835;5218.71795081;4271.66666674;3519.61538309;2303.97435488;229.99999153;-0.00000896;3315.12820319;3479.87179328;3348.46153659;4303.46153860;3348.84615197;4274.61538469;4106.15384588;4270.76923084
4269.48717956;3942.82051220;5153.97436092;4274.61538469;3679.87179369;2337.56409854;105.51281176;-0.00000896;3286.15384414;3451.53845987;3353.71794685;4303.33333348;3355.64102377;4300.12820527;4106.53846126;4270.76923084
4268.97435905;3943.97435835;5449.23077181;4301.15384630;3647.43589619;2365.38461143;229.99999153;-0.00000896;3286.79486978;3414.61538288;3353.46153659;4304.35897450;3386.02563922;4273.71794879;4104.99999973;4270.76923084
4241.92307693;3946.28205066;5089.61538643;4304.23076937;3648.20512696;2368.33332938;105.51281176;-0.00000896;3315.51281857;3388.33333153;3452.05128039;4301.28205142;3452.94871628;4302.17948732;4104.99999973;4237.94871795
4239.87179488;3972.17948663;5219.87179696;4302.94871809;3483.71794712;2399.23076534;229.99999153;-0.00000896;3284.23076722;3385.12820333;3353.84615197;4305.12820527;3315.89743396;4299.87179501;4104.23076896;4237.94871795
4239.74358975;3972.43589688;5193.20513022;4299.74358989;3679.23076805;2401.28204739;105.51281176;-0.00000896;3222.43589529;3381.41025461;3382.05128025;4303.46153860;3584.10256272;4299.87179501;4103.84615357;4237.94871795
4241.02564103;3972.94871740;5389.74359218;4272.69230777;3809.74358884;2399.61538073;229.99999153;-0.00000896;3249.87179279;3353.71794685;3347.69230582;4302.56410271;3322.30769037;4273.71794879;4103.46153819;4237.94871795
4241.79487180;3972.94871740;5121.41025829;4271.53846161;3617.69230638;2398.97435509;105.51281176;-0.00000896;3285.25640825;3351.92307505;3416.02563929;4302.17948732;3448.46153680;4299.61538476;4103.33333306;4237.94871795
4240.51282052;3973.33333278;5319.35897666;4272.94871802;3678.46153728;2431.41025259;229.99999153;-0.00000896;3255.51281843;3319.23076729;3384.10256230;4302.30769245;3386.02563922;4299.61538476;4077.17948684;4237.94871795
4239.48717949;3973.71794817;5190.25641228;4273.46153853;3577.69230631;2462.69230394;105.51281176;-0.00000896;3221.53845939;3286.66666466;3282.56410055;4303.33333348;3512.30769078;4301.02564117;4077.69230735;4237.94871795
4268.33333341;3976.28205073;5258.84615600;4272.30769238;3780.64102467;2432.69230387;229.99999153;-0.00000896;3220.76922862;3256.53845946;3353.46153659;4302.17948732;3317.17948524;4302.30769245;4077.30769196;4270.76923084
4273.58974366;3976.92307637;5121.79487367;4271.92307700;3711.66666556;2431.53845772;105.51281176;-0.00000896;3249.61538253;3255.64102356;3446.28204962;4303.33333348;3450.38461372;4300.25641040;4077.43589709;4270.76923084
4301.41025655;3978.20512765;5417.69231020;4300.64102578;3710.76922966;2462.17948343;229.99999153;-0.00000896;3256.53845946;3221.79486964;3479.74358815;4301.66666681;3485.64102405;4300.51282066;4103.07692280;4303.58974373
4301.53846168;4004.35897388;5093.07692489;4301.41025655;3742.82051178;2499.23076555;105.51281176;-0.00000896;3282.43589542;3189.35897214;3387.82051102;4301.92307707;3380.64102384;4300.38461553;4075.89743555;4303.58974373
4300.38461553;4007.43589695;5191.02564304;4274.61538469;3484.23076764;2529.87179126;229.99999153;-0.00000896;3254.74358766;3158.07692079;3355.76922890;4274.48717956;3321.02563908;4301.28205142;4077.69230735;4303.58974373
4300.51282066;4009.99999952;5223.20513029;4270.12820520;3744.61538358;2494.35897068;105.51281176;-0.00000896;3250.64102356;3154.23076694;3316.02563908;4301.28205142;3450.38461372;4300.64102578;4074.99999966;4303.58974373
4301.02564117;4009.35897388;5421.79487430;4266.66666674;3616.92307561;2433.20512439;229.99999153;-0.00000896;3252.17948510;3154.74358745;3420.89743416;4274.61538469;3414.48717775;4300.64102578;4076.66666632;4303.58974373
4304.74358989;4008.84615336;5122.17948906;4269.48717956;3742.17948614;2463.58973984;105.51281176;-0.00000896;3255.38461330;3123.97435662;3418.58974186;4302.69230784;3419.48717775;4301.92307707;4074.74358940;4303.58974373
4305.38461553;4009.99999952;5223.33333542;4273.20512828;3611.28204997;2533.07691947;229.99999153;-0.00000896;3255.64102356;3121.15384380;3451.66666500;4301.02564117;3354.61538274;4301.53846168;4074.10256376;4303.58974373
4305.00000014;4037.82051241;5254.35897652;4300.12820527;3546.92307547;2595.25640679;105.51281176;-0.00000896;3283.46153645;3088.97435655;3187.30769009;4299.48717963;3413.33333160;4302.17948732;4073.84615350;4303.58974373
4303.33333348;4044.35897395;5186.15384817;4300.38461553;3648.84615260;2593.97435550;229.99999153;-0.00000896;3282.05128004;3091.15384373;3351.41025454;4300.38461553;3383.58974179;4302.94871809;4073.97435863;4303.58974373
4301.28205142;4072.05128171;5186.66666869;4270.89743597;3742.56410153;2527.43589383;105.51281176;-0.00000896;3282.30769030;3119.10256174;3483.84615225;4301.28205142;3483.20512661;4300.89743604;4073.33333299;4303.58974373
4273.84615392;4044.87179446;5350.38461775;4267.69230777;3807.43589654;2531.92307331;229.99999153;-0.00000896;3255.51281843;3089.87179244;3415.64102391;4273.97435905;3577.82051143;4301.41025655;4073.07692273;4270.76923084
4272.30769238;4044.48717907;5159.48718144;4268.20512828;3646.15384491;2563.84615031;-0.00000896;-0.00000896;3253.71794664;3089.74358732;3418.71794698;4300.64102578;3319.35897242;4300.89743604;4073.20512786;4270.76923084
4270.38461546;4071.02564068;5124.74359162;4267.05128212;3415.25640852;2562.05127851;-0.00000896;-0.00000896;3286.92307491;3088.97435655;3413.58974186;4273.20512828;3320.64102370;4299.48717963;4071.79487145;4270.76923084
4240.64102564;4072.56410222;5448.46154104;4266.66666674;3743.58974255;2530.38461178;40.51281162;-0.00000896;3318.33333139;3092.56410014;3351.53845967;4303.33333348;3420.51281878;4300.12820527;4072.30769196;4237.94871795
4235.76923077;4070.12820478;5126.92307880;4240.12820513;3679.48717831;2532.30768870;229.99999153;-0.00000896;3320.89743396;3118.46153610;3448.20512654;4300.38461553;3516.53846001;4302.30769245;4071.79487145;4237.94871795
4204.61538455;4042.30769189;5188.84615587;4238.20512821;3743.07692204;2562.82050928;229.99999153;-0.00000896;3322.82051088;3120.89743354;3417.94871622;4273.71794879;3353.33333146;4302.17948732;4071.15384581;4205.12820506
4202.05128199;4038.46153805;5153.46154041;4239.10256411;3610.76922945;2561.92307338;229.99999153;-0.00000896;3316.41025447;3123.07692072;3383.07692127;4302.69230784;3319.74358780;4301.92307707;4071.28205094;4205.12820506
4201.66666660;4037.43589702;5352.17948955;4240.38461539;3484.35897276;2567.94871441;229.99999153;-0.00000896;3249.48717741;3055.12820263;3185.25640804;4274.48717956;3320.76922883;4274.10256418;4072.17948684;4205.12820506
4204.74358968;4039.48717907;5125.00000188;4266.79487187;3678.71794754;2565.12820159;-0.00000896;-0.00000896;3222.69230554;3056.79486930;3321.41025447;4300.89743604;3418.46153673;4302.17948732;4071.15384581;4205.12820506
4207.43589737;4040.64102523;5388.46154090;4267.94871802;3715.12820402;2567.05127851;-0.00000896;-0.00000896;3252.69230561;3055.76922827;3486.66666507;4271.92307700;3418.58974186;4301.79487194;4071.28205094;4205.12820506
4209.10256404;4040.76923036;5123.33333521;4267.17948725;3747.05128101;2600.51281704;-0.00000896;-0.00000896;3256.66666459;3053.71794622;3319.35897242;4274.61538469;3544.74358829;4301.53846168;4069.99999966;4205.12820506
4208.58974352;4040.76923036;5226.15384824;4241.15384616;3547.30769085;2626.28204788;-0.00000896;-0.00000896;3283.71794671;3054.23076673;3283.07692107;4300.12820527;3290.12820312;4302.82051296;4070.64102530;4205.12820506
4205.76923070;4040.51282010;5093.71795053;4239.23076923;3416.15384442;2626.53845814;-0.00000896;-0.00000896;3286.92307491;3025.38461282;3318.71794678;4272.82051289;3318.46153652;4302.43589758;4069.99999966;4205.12820506
4205.51282045;4038.20512779;5449.87179745;4238.20512821;3710.76922966;2626.28204788;-0.00000896;-0.00000896;3285.89743389;3027.17948461;3420.51281878;4273.07692315;3446.79487013;4299.87179501;4069.87179453;4205.12820506
4204.87179481;4040.38461497;5095.25641207;4240.51282052;3677.82051164;2596.28204781;-0.00000896;-0.00000896;3283.07692107;2994.23076659;3413.46153673;4274.61538469;3484.61538302;4300.00000014;4069.74358940;4205.12820506
4206.15384609;4039.61538420;5223.46154055;4268.33333341;3743.20512717;2597.05127858;-0.00000896;-0.00000896;3256.66666459;3024.87179230;3419.35897263;4300.51282066;3354.99999813;4301.41025655;4044.48717907;4205.12820506
4208.46153840;4012.17948670;5289.10256633;4271.28205136;3546.02563957;2631.28204788;-0.00000896;-0.00000896;3284.10256209;3019.48717692;3220.25640811;4272.05128212;3284.23076722;4300.64102578;4044.10256369;4205.12820506
4208.20512814;4008.71794824;5352.69231006;4274.23076930;3515.76922924;2695.12820187;-0.00000896;-0.00000896;3282.17948517;2958.97435627;3386.92307512;4273.20512828;3382.94871615;4301.41025655;4043.71794830;4205.12820506
4233.97435898;4011.15384567;5121.41025829;4271.41025648;3612.94871663;2757.05127893;-0.00000896;-0.00000896;3254.74358766;2922.43589466;3353.97435710;4272.05128212;3414.61538288;4302.30769245;4043.58974318;4237.94871795
4234.48717949;4041.15384574;5320.25641255;4269.61538469;3747.05128101;2796.28204823;-0.00000896;-0.00000896;3224.10256195;2855.64102273;3418.33333160;4273.07692315;3414.87179314;4301.41025655;4043.46153805;4237.94871795
4235.89743590;4071.53846119;5158.46154041;4267.56410264;3744.23076819;2757.69230457;-0.00000896;-0.00000896;3255.64102356;2825.89743291;3387.05128025;4273.84615392;3451.53845987;4301.41025655;4042.94871754;4237.94871795
4239.74358975;4102.82051255;5190.25641228;4241.53846154;3649.61538337;2699.35897110;-0.00000896;-0.00000896;3285.51281850;2855.64102273;3321.15384421;4271.41025648;3320.64102370;4300.38461553;4043.33333292;4237.94871795
4241.28205129;4107.94871767;5186.79487381;4270.89743597;3710.51281940;2757.05127893;-0.00000896;-0.00000896;3290.12820312;2856.28204837;3383.58974179;4300.00000014;3416.66666493;4303.33333348;4042.56410215;4237.94871795
4267.94871802;4136.41025621;5417.43589994;4302.30769245;3647.94871670;2762.05127893;-0.00000896;-0.00000896;3287.56410055;2858.71794580;3288.20512619;4273.97435905;3485.25640866;4300.76923091;4039.99999959;4270.76923084
4267.94871802;4141.53846133;5124.87179675;4305.12820527;3680.64102446;2761.15384303;-0.00000896;-0.00000896;3285.76922876;2857.94871503;3348.58974172;4273.58974366;3355.51281864;4302.43589758;4042.30769189;4270.76923084
4241.15384616;4168.84615371;5155.89743785;4305.25641040;3384.74358794;2725.64102245;-0.00000896;-0.00000896;3316.53845960;2860.51281760;3418.20512647;4271.79487187;3321.92307498;4302.17948732;4041.28205087;4237.94871795
4238.71794872;4169.35897422;5383.33333577;4302.94871809;3777.56410160;2698.07691981;-0.00000896;-0.00000896;3319.99999806;2923.46153569;3288.97435696;4272.82051289;3450.89743423;4303.46153860;4042.69230728;4237.94871795
4235.76923077;4142.82051262;5126.66666855;4303.97435912;3583.46153708;2724.10256091;-0.00000896;-0.00000896;3316.66666472;2925.64102287;3388.20512640;4274.23076930;3446.41025475;4303.07692322;4074.99999966;4237.94871795
4207.69230763;4141.15384595;5186.53846356;4306.15384630;3682.56410139;2730.51281732;-0.00000896;-0.00000896;3282.56410055;2925.12820235;3418.33333160;4299.74358989;3388.20512640;4301.92307707;4042.05128164;4205.12820506
4207.82051275;4141.02564082;5221.41025850;4306.79487194;3518.07692155;2726.28204809;-0.00000896;-0.00000896;3254.35897228;2924.87179210;3420.25640852;4274.10256418;3317.05128011;4303.33333348;4042.30769189;4205.12820506
4207.94871788;4140.64102544;5253.58974575;4333.20512842;3677.94871677;2759.10256098;-0.00000896;-0.00000896;3250.12820305;2921.53845876;3349.99999813;4272.82051289;3353.58974172;4302.17948732;4042.43589702;4205.25641019
4208.71794865;4141.66666646;5127.30769419;4332.82051303;3579.48717810;2757.17948406;-0.00000896;-0.00000896;3219.87179272;2926.28204851;3353.97435710;4271.79487187;3381.28204948;4303.20512835;4043.97435856;4205.25641019
4237.05128206;4139.48717928;5450.76923334;4333.71794893;3578.46153708;2758.07691995;229.99999153;-0.00000896;3217.94871580;2927.94871517;3249.87179279;4271.92307700;3419.99999827;4301.53846168;4039.74358933;4238.07692308
4238.58974359;4137.82051262;5062.05128379;4333.46153867;3709.61538351;2762.17948406;-0.00000896;-0.00000896;3188.20512599;2925.12820235;3384.10256230;4270.51282059;3549.35897290;4302.17948732;4041.79487138;4238.07692308
4266.79487187;4136.28205108;5193.33333535;4335.00000021;3677.56410139;2730.76922758;-0.00000896;-0.00000896;3250.25640818;2923.46153569;3354.23076736;4299.61538476;3316.02563908;4303.58974373;4041.02564061;4270.89743597
4266.66666674;4109.99999973;5091.02564284;4335.38461560;3746.15384512;2756.92307380;106.02563227;-0.00000896;3288.33333132;2927.05127928;3354.87179300;4271.41025648;3450.64102398;4302.82051296;4041.79487138;4270.89743597
4240.64102564;4106.28205101;5450.51282309;4365.76923105;3452.43589577;2760.89743277;229.99999153;-0.00000896;3318.33333139;2926.02563825;3320.76922883;4268.97435905;3382.30769050;4303.46153860;4044.61538420;4238.07692308
4237.05128206;4105.51282024;5093.71795053;4370.38461567;3610.76922945;2793.84615079;229.99999153;-0.00000896;3282.69230568;2924.61538184;3446.28204962;4268.58974366;3449.35897270;4304.74358989;4041.41025600;4238.07692308
4237.05128206;4077.43589709;5254.48718165;4371.92307720;3582.82051143;2796.53845848;229.99999153;-0.00000896;3217.17948503;2895.25640741;3385.64102384;4271.02564110;3353.33333146;4304.23076937;4041.92307651;4238.07692308
4235.89743590;4075.12820478;5223.58974568;4369.87179515;3648.20512696;2823.07692009;229.99999153;-0.00000896;3185.51281829;2861.28204837;3413.97435724;4271.53846161;3583.84615246;4303.58974373;4040.89743548;4238.07692308
4236.28205129;4071.28205094;5353.46154083;4339.10256431;3647.94871670;2824.61538163;229.99999153;-0.00000896;3124.61538226;2860.38461247;3349.10256223;4269.35897443;3286.53845953;4304.35897450;4040.76923036;4238.07692308
4236.28205129;4043.07692266;5124.23077111;4334.10256431;3615.76922945;2824.23076625;229.99999153;-0.00000896;3121.79486944;2825.76922779;3355.25640838;4271.02564110;3414.10256237;4301.66666681;4040.38461497;4238.07692308
4237.94871795;4042.56410215;5388.20513064;4303.71794886;3741.79487076;2859.35897144;229.99999153;-0.00000896;3123.20512585;2795.38461233;3348.58974172;4267.82051289;3416.92307519;4303.46153860;4040.51282010;4237.94871795
4237.30769231;4043.20512779;5089.74359155;4302.82051296;3549.35897290;2857.30768939;229.99999153;-0.00000896;3126.02563867;2794.48717643;3283.20512619;4270.64102571;3448.97435731;4303.58974373;4038.71794830;4237.94871795
4236.66666667;4042.30769189;5218.84615593;4302.69230784;3711.79487069;2856.53845862;229.99999153;-0.00000896;3151.02563874;2794.10256105;3385.25640845;4241.41025641;3318.97435703;4304.35897450;4040.25640984;4237.94871795
4238.20512821;4041.53846113;5092.30769412;4305.25641040;3647.56410132;2858.46153555;229.99999153;-0.00000896;3120.38461303;2791.28204823;3318.84615190;4267.82051289;3384.35897256;4303.97435912;4038.33333292;4237.94871795
4239.23076923;4039.87179446;5452.56410514;4305.00000014;3585.51281913;2828.20512522;229.99999153;-0.00000896;3091.92307449;2795.25640720;3217.05127990;4269.74358982;3418.07692134;4303.20512835;4039.48717907;4237.94871795
4238.97435898;4010.89743541;5120.00000188;4303.33333348;3649.35897311;2856.15384324;229.99999153;-0.00000896;3092.05127962;2791.79486874;3348.20512633;4268.84615392;3420.25640852;4304.23076937;4039.48717907;4237.94871795
4239.35897436;4008.33333285;5221.53846363;4300.12820527;3486.53845994;2861.92307401;229.99999153;-0.00000896;3092.82051039;2795.76922772;3484.48717789;4267.56410264;3320.64102370;4305.00000014;4038.97435856;4237.94871795
4238.84615385;3978.46153791;5284.61538684;4299.74358989;3778.07692211;2891.15384331;229.99999153;-0.00000896;3123.33333097;2764.23076611;3253.07692100;4268.20512828;3519.87179335;4306.41025655;4038.84615343;4237.94871795
4237.82051282;3976.92307637;5285.76923300;4274.10256418;3644.87179362;2924.23076646;229.99999153;-0.00000896;3092.43589501;2758.97435585;3415.12820339;4267.43589751;3348.46153659;4305.00000014;4038.33333292;4237.94871795
4237.05128206;3975.89743535;5125.00000188;4273.20512828;3649.74358850;2955.64102293;229.99999153;-0.00000896;3090.51281808;2698.97435571;3381.92307512;4267.30769238;3419.48717775;4305.76923091;4037.43589702;4237.94871795
4237.30769231;3977.05128150;5319.87179717;4270.12820520;3712.94871684;2992.30768967;229.99999153;-0.00000896;3089.10256167;2693.33333007;3383.20512640;4268.97435905;3415.89743416;4304.35897450;4037.56410215;4237.94871795
4236.02564103;3978.46153791;5186.79487381;4238.33333334;3451.66666500;2992.05127941;229.99999153;-0.00000896;3123.58974123;2661.66666334;3186.28204906;4238.46153847;3347.82051095;4307.05128219;4011.66666618;4237.94871795
4235.12820513;3977.82051227;5154.23077118;4234.87179488;3513.97435745;2993.84615121;229.99999153;-0.00000896;3152.30769002;2631.41025301;3384.10256230;4267.17948725;3321.28204934;4304.48717963;4037.17948677;4237.94871795
4235.00000000;4004.35897388;5417.56410507;4207.43589737;3713.46153735;3023.46153589;229.99999153;-0.00000896;3125.89743354;2632.05127865;3250.64102356;4266.66666674;3516.92307540;4305.25641040;4036.92307651;4237.94871795
4234.61538462;4007.05128157;5350.89743826;4206.66666660;3680.64102446;3019.87179230;229.99999153;-0.00000896;3151.53845925;2632.94871455;3453.58974193;4267.82051289;3486.79487020;4303.46153860;4010.12820465;4237.94871795
4234.87179488;4009.74358926;5220.00000209;4207.17948711;3745.12820409;3026.02563846;229.99999153;-0.00000896;3155.89743361;2658.46153513;3354.48717761;4267.82051289;3386.02563922;4305.00000014;4011.79487131;4237.94871795
4233.97435898;4010.38461490;5122.82051470;4207.05128199;3676.66666549;3056.66666417;229.99999153;-0.00000896;3157.69230540;2628.97435557;3415.64102391;4237.94871795;3320.76922883;4305.00000014;4011.53846106;4237.94871795
4233.84615385;4037.94871754;5385.12820756;4204.74358968;3385.51281871;3089.48717706;229.99999153;-0.00000896;3157.05127976;2628.84615045;3058.97435648;4269.74358982;3350.64102377;4303.97435912;4011.66666618;4237.94871795
4233.84615385;4040.64102523;5126.28205316;4204.99999993;3743.97435794;3088.71794629;229.99999153;-0.00000896;3155.76922848;2630.76922737;3416.15384442;4268.20512828;3453.97435731;4304.10256425;4011.41025593;4237.94871795
4234.61538462;4042.82051241;5188.07692510;4203.33333327;3677.30769113;3058.84615135;229.99999153;-0.00000896;3157.17948489;2658.71794539;3384.99999820;4238.58974359;3418.07692134;4304.35897450;4010.76923029;4237.94871795
4235.76923077;4041.02564061;5222.17948927;4201.79487173;3743.84615281;3059.87179237;229.99999153;-0.00000896;3156.53845925;2632.30768891;3417.43589570;4239.10256411;3612.05128073;4303.71794886;4011.02564054;4237.94871795
4236.02564103;4042.30769189;5254.23077139;4203.58974352;3613.84615253;3087.82051039;229.99999153;-0.00000896;3187.43589522;2633.07691968;3352.56410069;4241.15384616;3257.30769023;4303.71794886;4010.38461490;4237.94871795
4237.17948718;4041.79487138;5126.79487367;4203.58974352;3349.23076736;3091.15384373;229.99999153;-0.00000896;3220.89743375;2631.53845814;3352.43589556;4267.30769238;3381.66666486;4306.15384630;4036.92307651;4237.94871795
4235.51282052;4043.20512779;5449.87179745;4208.33333327;3743.07692204;3092.05127962;229.99999153;-0.00000896;3254.61538253;2625.64102224;3314.87179293;4240.76923077;3479.99999841;4303.46153860;4009.87179439;4237.94871795
4208.20512814;4042.05128164;5062.05128379;4235.64102564;3775.38461442;3119.48717713;229.99999153;-0.00000896;3251.41025433;2595.12820166;3255.38461330;4239.61538462;3551.28204983;4305.00000014;4010.12820465;4205.12820506
4205.89743583;4044.99999959;5193.33333535;4238.20512821;3680.51281934;3156.15384386;229.99999153;-0.00000896;3220.12820298;2565.89743236;3284.99999799;4239.23076923;3320.89743396;4303.07692322;4009.61538413;4205.12820506
4206.02564096;4071.28205094;5157.30769426;4239.61538462;3714.10256299;3188.46153624;100.38460663;-0.00000896;3216.53845939;2593.20512473;3348.46153659;4238.71794872;3447.69230603;4303.33333348;4009.74358926;4205.12820506
4205.64102558;4076.66666632;5319.23077153;4238.58974359;3486.15384456;3188.84615163;229.99999153;-0.00000896;3190.38461316;2534.87179126;3415.25640852;4239.10256411;3387.30769050;4304.87179501;4009.61538413;4205.12820506
4205.64102558;4105.25640998;5187.43589945;4237.69230770;3552.69230624;3183.97435675;229.99999153;-0.00000896;3221.92307477;2560.89743236;3186.02563881;4240.38461539;3485.64102405;4305.51282066;4009.61538413;4205.12820506
4204.61538455;4110.51282024;5126.28205316;4238.07692308;3616.41025509;3186.53845932;229.99999153;-0.00000896;3224.10256195;2530.12820152;3384.87179307;4239.23076923;3349.23076736;4304.23076937;4009.74358926;4205.12820506
4203.97435891;4137.94871774;5422.56410507;4239.74358975;3646.15384491;3185.25640804;229.99999153;-0.00000896;3223.20512605;2501.66666299;3321.28204934;4238.33333334;3511.79487027;4305.00000014;4009.35897388;4205.12820506
4203.84615378;4168.20512807;5158.07692503;4269.87179495;3614.99999868;3184.87179265;-0.00000896;-0.00000896;3217.30769016;2527.56409895;3216.79486964;4241.92307693;3446.53845987;4304.23076937;4009.35897388;4205.12820506
4206.66666660;4171.53846140;5188.46154048;4273.84615392;3710.25640915;3183.71794650;-0.00000896;-0.00000896;3217.05127990;2560.12820159;3316.02563908;4237.43589744;3385.51281871;4305.12820527;4008.46153798;4205.12820506
4208.58974352;4174.61538448;5128.07692496;4301.15384630;3387.05128025;3157.69230540;-0.00000896;-0.00000896;3217.56410041;2594.48717602;3419.23076750;4237.56410257;3322.05128011;4302.43589758;4009.10256362;4205.12820506
4236.41025641;4201.02564096;5356.28205365;4305.25641040;3747.05128101;3187.94871573;-0.00000896;-0.00000896;3222.30769016;2595.76922730;3253.33333125;4237.43589744;3388.07692127;4302.94871809;4009.10256362;4237.94871795
4239.87179488;4202.43589737;5127.30769419;4307.56410271;3483.84615225;3188.71794650;-0.00000896;-0.00000896;3251.28204920;2595.89743243;3322.82051088;4238.20512821;3481.41025482;4304.87179501;4008.97435849;4237.94871795
4267.82051289;4205.38461532;5286.41025864;4337.43589765;3714.74358864;3189.61538240;-0.00000896;-0.00000896;3251.41025433;2595.76922730;3287.17948517;4238.84615385;3418.58974186;4305.00000014;4008.58974311;4270.89743597
4269.74358982;4233.97435898;5193.20513022;4366.41025669;3486.53845994;3218.97435682;-0.00000896;-0.00000896;3251.15384407;2594.10256063;3517.43589591;4238.58974359;3584.74358836;4303.33333348;4009.10256362;4270.89743597
4270.64102571;4237.56410257;5193.20513022;4370.25641054;3778.84615288;3191.02563881;-0.00000896;-0.00000896;3282.56410055;2594.48717602;3317.69230575;4238.46153847;3314.87179293;4305.38461553;4009.61538413;4270.89743597
4270.00000007;4241.28205129;5125.38461726;4402.30769266;3581.41025502;3185.64102342;-0.00000896;-0.00000896;3318.33333139;2594.61538114;3382.05128025;4238.07692308;3352.82051095;4303.33333348;4009.23076875;4270.89743597
4267.56410264;4239.61538462;5451.41025899;4433.33333375;3547.30769085;3152.82051053;-0.00000896;-0.00000896;3385.51281871;2629.35897096;3218.46153631;4239.23076923;3413.71794698;4304.10256425;4007.94871747;4270.89743597
4239.10256411;4236.79487180;5088.20513002;4438.07692350;3712.05128094;3184.48717727;-0.00000896;-0.00000896;3416.41025468;2633.07691968;3351.41025454;4236.02564103;3478.97435738;4305.12820527;4008.71794824;4238.07692308
4207.69230763;4208.07692301;5192.69230971;4496.66666723;3414.23076750;3157.17948489;-0.00000896;-0.00000896;3351.66666479;2659.10256077;3382.17948538;4239.23076923;3288.20512619;4305.00000014;4008.71794824;4205.38461532
4205.12820506;4206.02564096;5090.89743771;4531.66666730;3746.92307588;3155.25640797;-0.00000896;-0.00000896;3256.28204920;2660.12820180;3355.51281864;4235.25641026;3583.46153708;4303.71794886;4008.58974311;4205.38461532
4204.74358968;4202.94871788;5448.58974616;4566.28205198;3617.05128073;3158.46153617;-0.00000896;-0.00000896;3217.17948503;2659.35897103;3347.82051095;4233.97435898;3349.99999813;4306.15384630;4009.61538413;4205.38461532
4205.76923070;4174.48717935;5124.23077111;4598.07692385;3613.71794740;3158.58974130;-0.00000896;-0.00000896;3156.41025412;2661.53845821;3418.58974186;4237.56410257;3448.20512654;4305.12820527;4009.74358926;4205.51282045
4206.02564096;4168.97435884;5288.46154069;4596.41025718;3774.87179390;3220.89743375;-0.00000896;-0.00000896;3156.79486951;2660.64102231;3384.10256230;4234.35897436;3386.66666486;4332.82051303;4009.10256362;4205.51282045
4202.56410250;4141.15384595;5185.76923279;4569.74359044;3478.97435738;3289.61538260;-0.00000896;-0.00000896;3188.07692086;2627.43589403;3288.20512619;4208.97435891;3380.64102384;4307.17948732;4007.82051234;4205.38461532
4171.53846140;4138.84615364;5191.41025843;4567.17948788;3515.89743437;3317.82051088;-0.00000896;-0.00000896;3187.69230547;2592.94871448;3349.61538274;4208.71794865;3320.89743396;4307.05128219;4009.10256362;4172.56410243
4139.99999980;4140.64102544;5124.74359162;4568.46153916;3583.71794733;3315.12820319;-0.00000896;-0.00000896;3217.30769016;2563.97435543;3380.76922897;4235.64102564;3545.64102419;4333.71794893;4007.56410208;4139.74358954
4107.30769203;4140.76923056;5390.64102808;4596.79487256;3747.82051178;3322.56410062;-0.00000896;-0.00000896;3155.51281822;2565.89743236;3413.46153673;4238.33333334;3518.58974206;4332.82051303;4009.23076875;4107.05128178
4076.15384581;4142.94871774;5125.12820701;4599.61538538;3713.46153735;3350.64102377;-0.00000896;-0.00000896;3060.12820263;2562.05127851;3418.33333160;4234.23076923;3452.17948552;4334.10256431;4011.28205080;4074.23076889
4074.61538427;4141.92307672;5153.71795067;4597.82051359;3647.82051157;3382.43589563;-0.00000896;-0.00000896;3019.99999743;2596.28204781;3354.23076736;4207.94871788;3288.07692107;4333.84615406;4009.61538413;4074.23076889
4074.35897402;4139.10256390;5388.97436141;4570.00000070;3386.66666486;3415.38461365;-0.00000896;-0.00000896;2958.58974088;2598.20512473;3220.25640811;4209.10256404;3479.35897276;4334.48717970;4009.61538413;4074.10256376
4076.53846119;4139.10256390;5124.61538650;4564.23076993;3781.53846057;3419.10256237;-0.00000896;-0.00000896;2958.58974088;2594.61538114;3420.64102391;4205.25641019;3448.46153680;4335.51282073;4009.10256362;4074.10256376
4076.41025607;4139.99999980;5188.33333535;4536.53846217;3680.25640908;3450.38461372;229.99999153;-0.00000896;2992.43589480;2535.25640665;3381.92307512;4208.71794865;3414.35897263;4335.38461560;4009.74358926;4074.10256376
4074.35897402;4168.71794858;5191.66666869;4537.30769294;3647.30769106;3484.61538302;-0.00000896;-0.00000896;2956.28204858;2498.46153478;3420.38461365;4207.56410250;3318.58974165;4336.41025662;4010.12820465;4074.10256376
4074.35897402;4201.41025634;5285.00000223;4562.69230839;3614.10256279;3514.74358822;-0.00000896;-0.00000896;2953.84615114;2496.66666299;3122.56410021;4206.15384609;3479.48717789;4336.41025662;4010.12820465;4074.10256376
4071.92307658;4206.92307686;5157.69230964;4563.97435967;3646.41025516;3486.41025482;38.46152957;-0.00000896;2955.12820242;2501.66666299;3387.05128025;4204.10256404;3354.23076736;4338.58974380;4010.64102516;4074.10256376
4069.99999966;4235.00000000;5258.33333549;4536.79487242;3681.28205010;3514.74358822;229.99999153;-0.00000896;2928.84615107;2567.94871441;3381.15384435;4205.12820506;3420.25640852;4338.84615406;4010.25640977;4074.10256376
4044.10256369;4235.12820513;5285.12820736;4533.20512883;3582.82051143;3544.61538316;229.99999153;-0.00000896;2857.05127914;2600.12820166;3320.25640831;4204.87179481;3387.56410076;4337.82051303;4010.89743541;4041.28205087
4072.94871761;4235.38461539;5156.92307887;4503.46153902;3548.46153701;3547.56410111;229.99999153;-0.00000896;2826.02563804;2625.89743250;3220.12820298;4201.66666660;3322.82051088;4337.94871816;4010.51282003;4074.10256376
4074.35897402;4237.82051282;5126.41025829;4502.17948774;3584.61538323;3577.82051143;229.99999153;-0.00000896;2859.61538170;2597.43589397;3381.66666486;4203.58974352;3349.74358787;4338.33333355;4011.53846106;4074.10256376
4075.64102530;4241.28205129;5450.89743847;4529.23076986;3681.79487062;3581.15384477;229.99999153;-0.00000896;2892.56409972;2595.76922730;3286.15384414;4201.66666660;3419.48717775;4366.02564131;4011.92307644;4074.10256376
4073.58974325;4270.89743597;5090.25641207;4533.58974422;3714.99999889;3617.82051150;229.99999153;-0.00000896;2928.46153569;2564.23076569;3387.43589563;4203.46153840;3512.82051130;4365.12820541;4037.43589702;4074.10256376
4044.10256369;4302.94871809;5192.05128407;4566.92307762;3746.92307588;3615.89743458;229.99999153;-0.00000896;2894.35897151;2597.05127858;3416.92307519;4175.64102551;3383.46153666;4365.89743618;4011.66666618;4041.28205087
4041.41025600;4333.84615406;5120.51282239;4595.76923154;3486.79487020;3616.79487048;229.99999153;-0.00000896;2860.25640734;2633.58974019;3420.76922904;4203.71794865;3218.33333118;4365.38461567;4036.92307651;4041.41025600
4041.02564061;4335.00000021;5323.84615614;4570.00000070;3518.46153694;3648.46153721;229.99999153;-0.00000896;2823.71794573;2661.41025308;3221.02563888;4201.41025634;3354.99999813;4368.33333362;4039.99999959;4041.28205087
4042.05128164;4336.53846175;5153.07692503;4594.87179564;3681.28205010;3648.97435773;229.99999153;-0.00000896;2761.15384303;2691.79486853;3353.33333146;4205.38461532;3419.48717775;4367.43589772;4037.69230728;4041.41025600
4044.87179446;4338.46153867;5323.20513050;4595.64102641;3778.46153749;3648.20512696;229.99999153;-0.00000896;2697.05127879;2695.89743264;3482.56410097;4175.89743576;3479.48717789;4366.92307720;4012.05128157;4041.41025600
4074.35897402;4339.74358996;5125.12820701;4566.66666737;3714.48717838;3616.53846022;229.99999153;-0.00000896;2696.53845828;2726.53845835;3353.71794685;4174.48717935;3481.15384456;4366.66666695;4038.46153805;4074.10256376
4077.43589709;4338.84615406;5186.79487381;4565.38461608;3679.10256293;3644.10256286;229.99999153;-0.00000896;2728.58974040;2725.64102245;3355.64102377;4175.25641012;3318.20512626;4367.43589772;4041.79487138;4074.10256376
4103.46153819;4365.76923105;5120.76923265;4568.20512890;3650.38461414;3710.76922966;229.99999153;-0.00000896;2727.94871476;2697.30768905;3354.48717761;4175.76923063;3387.82051102;4368.97435926;4038.71794830;4106.92307665
4077.43589709;4370.64102592;5452.05128463;4595.00000077;3709.74358864;3710.25640915;229.99999153;-0.00000896;2759.10256098;2696.53845828;3386.41025461;4201.15384609;3451.53845987;4367.82051310;4039.35897395;4074.23076889
4073.84615350;4399.23076958;5095.25641207;4599.10256487;3683.97435780;3714.99999889;229.99999153;-0.00000896;2759.87179175;2757.69230457;3421.41025468;4174.87179474;3418.84615211;4368.07692336;4039.48717907;4074.23076889
4071.15384581;4398.46153881;5220.38461747;4569.87179557;3578.33333195;3709.23076812;229.99999153;-0.00000896;2691.79486853;2763.71794559;3351.92307505;4173.07692294;3316.15384421;4368.58974387;4037.94871754;4074.10256376
4044.74358933;4370.64102592;5288.20513043;4566.15384685;3577.69230631;3677.94871677;229.99999153;-0.00000896;2626.53845814;2795.38461233;3382.43589563;4171.92307679;3582.69230631;4369.48717977;4040.12820472;4041.28205087
4044.48717907;4367.43589772;5317.43589973;4563.07692378;3710.38461428;3681.92307575;229.99999153;-0.00000896;2563.97435543;2829.61538163;3383.07692127;4173.46153833;3322.05128011;4370.76923105;4040.89743548;4041.28205087
4073.07692273;4365.76923105;5124.23077111;4562.56410326;3710.12820402;3711.15384505;229.99999153;-0.00000896;2563.07691954;2829.35897137;3420.64102391;4176.15384602;3482.69230610;4368.97435926;4040.89743548;4074.10256376
4076.79487145;4337.43589765;5316.92307922;4535.76923140;3911.79487110;3715.12820402;229.99999153;-0.00000896;2597.05127858;2858.97435606;3383.07692127;4170.76923063;3453.84615218;4369.10256438;4040.89743548;4074.10256376
4076.92307658;4336.92307714;5160.89743785;4562.69230839;3518.07692155;3774.99999903;229.99999153;-0.00000896;2628.84615045;2857.56409965;3184.74358752;4173.07692294;3353.46153659;4370.00000028;4041.28205087;4074.10256376
4076.28205094;4336.66666688;5191.15384817;4564.48718019;3650.51281927;3776.92307595;229.99999153;-0.00000896;2600.38461191;2860.51281760;3384.10256230;4173.84615371;3349.23076736;4397.94871830;4041.79487138;4074.10256376
4074.61538427;4336.15384637;5124.74359162;4565.25641096;3746.66666563;3746.02563999;229.99999153;-0.00000896;2632.05127865;2891.79486895;3451.53845987;4171.28205115;3483.84615225;4371.15384644;4042.05128164;4074.10256376
4070.64102530;4334.35897457;5390.64102808;4567.05128275;3677.43589626;3775.12820416;229.99999153;-0.00000896;2628.46153506;2892.05127921;3381.28204948;4172.82051269;3518.33333181;4371.41025669;4042.05128164;4074.10256376
4042.69230728;4307.05128219;5125.12820701;4567.69230839;3709.74358864;3779.35897339;229.99999153;-0.00000896;2625.64102224;2891.41025357;3352.17948531;4172.17948704;3354.87179300;4371.79487208;4042.69230728;4041.28205087
4039.48717907;4305.89743604;5153.71795067;4569.61538531;3515.51281899;3782.05128108;229.99999153;-0.00000896;2625.89743250;2892.43589459;3383.33333153;4171.15384602;3289.99999799;4373.20512849;4042.69230728;4041.28205087
4009.10256362;4305.25641040;5388.33333577;4567.82051352;3843.84615302;3873.84615309;229.99999153;-0.00000896;2632.82050942;2889.61538177;3350.51281864;4170.64102551;3517.43589591;4372.17948746;4043.58974318;4008.46153798
4005.25640977;4304.48717963;5124.23077111;4567.17948788;3581.66666528;3878.20512744;229.99999153;-0.00000896;2596.92307345;2888.84615100;3388.20512640;4170.76923063;3413.33333160;4398.84615420;4044.10256369;4008.46153798
3976.02564047;4306.28205142;5251.41025857;4565.64102634;3748.33333229;3906.92307623;229.99999153;-0.00000896;2562.05127851;2894.87179203;3382.05128025;4143.20512800;3447.30769064;4372.82051310;4044.23076882;3975.64102509
3975.64102509;4336.15384637;5225.76923286;4565.12820583;3516.79487027;3939.48717887;229.99999153;-0.00000896;2433.20512439;2892.82050998;3385.76922897;4169.74358961;3316.79486985;4399.35897471;4070.64102530;3975.64102509
4004.74358926;4367.69230797;5252.69230985;4564.35897506;3577.82051143;3910.89743521;229.99999153;-0.00000896;2401.28204739;2923.33333056;3349.99999813;4169.61538448;3415.12820339;4399.87179522;4069.74358940;4008.46153798
4008.46153798;4371.53846182;5155.12820708;4563.46153916;3617.30769099;3876.41025565;229.99999153;-0.00000896;2494.99999632;2954.74358704;3354.61538274;4142.17948697;3414.87179314;4400.76923112;4069.99999966;4008.46153798
4007.17948670;4369.74359003;5388.20513064;4536.66666730;3777.82051185;3908.07692239;-0.00000896;-0.00000896;2560.89743236;2988.20512557;3414.48717775;4168.20512807;3453.71794705;4400.12820548;4070.89743555;4008.46153798
4004.99999952;4367.94871823;5126.79487367;4536.15384678;3874.35897360;3973.58974304;7.05127309;-0.00000896;2498.46153478;2990.12820249;3515.51281899;4143.46153826;3514.10256258;4399.74359009;4071.66666632;4008.46153798
4006.41025593;4369.23076951;5188.71795074;4533.33333396;3713.33333223;3943.97435835;229.99999153;-0.00000896;2369.87179091;3052.43589494;3352.94871608;4142.43589723;3320.25640831;4399.74359009;4071.41025607;4008.46153798
4009.99999952;4371.15384644;5094.23077104;4530.51282114;3709.99999889;3941.66666605;7.05127309;-0.00000896;2367.17948322;3053.07692058;3355.51281864;4141.28205108;3380.76922897;4401.28205163;4071.53846119;4008.46153798
4012.17948670;4370.00000028;5453.58974616;4529.61538524;3578.46153708;3913.71794803;-0.00000896;-0.00000896;2401.53845765;3026.53845897;3320.76922883;4138.97435877;3352.43589556;4400.00000035;4072.43589709;4008.46153798
4009.74358926;4368.33333362;5094.87179668;4529.61538524;3677.56410139;3911.02564033;-0.00000896;-0.00000896;2468.46153471;3060.38461289;3450.64102398;4139.10256390;3416.66666493;4398.97435933;4072.43589709;4008.46153798
4005.89743541;4366.41025669;5189.10256612;4531.79487242;3781.28205031;3945.12820451;-0.00000896;-0.00000896;2560.89743236;3058.71794622;3417.30769057;4139.99999980;3223.46153631;4401.66666702;4073.07692273;4008.46153798
3943.97435835;4337.30769252;5024.74359142;4531.66666730;3681.79487062;4040.25640984;-0.00000896;-0.00000896;2534.48717588;3059.87179237;3384.48717768;4137.30769210;3322.05128011;4401.02564138;4073.46153812;3942.82051220
3907.17948649;4337.17948739;5219.48718158;4532.30769294;3516.66666514;4042.43589702;-0.00000896;-0.00000896;2428.84615003;3088.84615142;3347.69230582;4139.61538441;3118.20512585;4400.64102599;4074.48717914;3909.99999931
3874.74358898;4340.12820534;5154.74359169;4532.17948781;3644.48717824;4042.30769189;-0.00000896;-0.00000896;2337.56409854;3150.76922848;3355.51281864;4137.30769210;3381.02563922;4400.51282086;4074.74358940;3877.17948642
3873.46153770;4366.28205156;5388.33333577;4533.46153909;3679.99999882;4043.84615343;-0.00000896;-0.00000896;2330.38461136;3153.46153617;3415.51281878;4137.69230749;3383.33333153;4400.64102599;4075.64102530;3877.17948642
3848.07692225;4366.15384644;5120.25641214;4532.56410319;3647.43589619;4075.38461504;-0.00000896;-0.00000896;2334.99999597;3156.15384386;3417.69230596;4136.15384595;3315.25640831;4402.43589779;4076.02564068;3844.35897353
3847.17948635;4367.30769259;5193.20513022;4534.10256473;3450.12820346;4141.66666646;-0.00000896;-0.00000896;2264.61538045;3158.46153617;3322.17948524;4138.58974339;3288.33333132;4402.43589779;4103.58974332;3844.35897353
3874.35897360;4400.64102599;5093.58974540;4532.05128268;3676.79487062;4234.74358975;-0.00000896;-0.00000896;2104.61538010;3187.30769009;3354.10256223;4135.38461518;3154.10256181;4403.07692343;4077.05128171;3877.17948642
3910.64102495;4437.05128247;5453.58974616;4501.15384671;3743.07692204;4269.35897443;-0.00000896;-0.00000896;1969.74358495;3220.64102349;3382.69230589;4138.46153826;3385.51281871;4403.20512856;4105.25640998;3909.99999931
3974.99999945;4470.25641075;5094.61538643;4465.38461587;3745.25640922;4201.92307686;-0.00000896;-0.00000896;1878.71794372;3255.12820305;3448.46153680;4137.17948697;3385.89743409;4402.82051317;4102.82051255;3975.64102509
4037.05128164;4471.28205177;5188.46154048;4401.92307727;3582.43589605;4104.35897408;-0.00000896;-0.00000896;2009.10255938;3315.38461344;3355.51281864;4135.51282031;3184.87179265;4403.20512856;4104.10256383;4041.15384574
4044.99999959;4465.76923126;5221.15384824;4366.15384644;3648.84615260;4072.43589709;-0.00000896;-0.00000896;2133.84614940;3315.64102370;3256.66666459;4110.25640998;3188.84615163;4403.58974394;4103.46153819;4041.15384574
4044.23076882;4464.23076972;5186.79487381;4337.43589765;3612.69230638;4139.74358954;-0.00000896;-0.00000896;2203.58973929;3288.84615183;3353.20512633;4136.02564082;3189.74358752;4404.48717984;4103.71794844;4041.15384574
4038.58974318;4464.35897485;5158.71795067;4306.66666681;3647.43589619;4238.46153847;-0.00000896;-0.00000896;2233.84614961;3249.99999792;3483.97435738;4110.64102537;3348.46153659;4403.33333368;4107.56410229;4041.02564061
4004.87179439;4496.92307748;5289.87179710;4301.28205142;3748.33333229;4301.79487194;-0.00000896;-0.00000896;2204.10255980;3191.66666445;3353.84615197;4136.02564082;3350.12820326;4402.30769266;4104.48717921;4008.20512772
3945.12820451;4534.74359037;5185.76923279;4270.00000007;3386.15384435;4269.35897443;-0.00000896;-0.00000896;2171.79486742;3220.89743375;3220.51281836;4137.05128185;3318.71794678;4403.58974394;4105.51282024;3942.56410194
3911.28205059;4568.97435967;5187.17948920;4238.97435898;3613.58974227;4141.66666646;-0.00000896;-0.00000896;2200.89743159;3285.76922876;3349.99999813;4136.41025621;3123.20512585;4405.00000035;4105.76923050;3909.74358905
3879.35897360;4595.76923154;5159.87179682;4236.28205129;3647.69230645;4104.87179460;-0.00000896;-0.00000896;2202.17948288;3320.51281857;3417.30769057;4139.87179467;3282.17948517;4404.35897471;4105.89743562;3876.92307616
3847.69230686;4597.43589820;5123.46154034;4208.58974352;3710.76922966;4142.43589723;-0.00000896;-0.00000896;2202.69230339;3349.87179300;3417.69230596;4136.28205108;3349.10256223;4403.33333368;4107.43589716;3844.10256327
3840.64102481;4602.17948795;5158.58974554;4204.48717942;3742.17948614;4201.92307686;-0.00000896;-0.00000896;2170.89743152;3353.33333146;3420.64102391;4136.15384595;3284.35897235;4403.97435933;4108.33333306;3844.10256327
3811.53846064;4633.84615468;5124.74359162;4175.51282038;3613.71794740;4138.33333313;-0.00000896;-0.00000896;2171.28204691;3387.56410076;3451.02563936;4108.71794844;3316.53845960;4404.35897471;4109.35897408;3811.15384525
3782.43589647;4661.41025732;5390.12820756;4170.12820499;3480.64102405;4075.76923043;-0.00000896;-0.00000896;2172.30768793;3448.33333167;3152.82051053;4136.53846133;3314.87179293;4403.20512856;4109.87179460;3778.33333236
3780.12820416;4663.20512911;5126.66666855;4170.51282038;3776.28205031;4043.33333292;229.99999153;-0.00000896;2199.61538031;3519.87179335;3351.15384428;4135.89743569;3249.35897228;4405.51282086;4110.38461511;3778.33333236
3780.89743493;4663.07692398;5190.25641228;4171.66666653;3842.69230686;4037.94871754;229.99999153;-0.00000896;2172.69230332;3581.28204990;3484.87179328;4135.76923056;3353.97435710;4405.25641061;4109.99999973;3778.33333236
3808.20512731;4663.97435988;5122.56410444;4173.58974345;3810.64102474;4005.64102516;229.99999153;-0.00000896;2167.94871357;3645.38461414;3381.92307512;4137.17948697;3416.41025468;4403.20512856;4136.15384595;3811.15384525
3811.53846064;4664.35897527;5222.05128414;4175.25641012;3547.69230624;3945.76923015;229.99999153;-0.00000896;2171.53845716;3711.92307582;3322.82051088;4137.17948697;3287.82051081;4406.02564138;4137.94871774;3811.15384525
3840.64102481;4661.02564193;5153.07692503;4201.66666660;3581.79487041;3938.71794810;-0.00000896;-0.00000896;2169.99999563;3774.87179390;3349.35897249;4137.69230749;3154.48717720;4430.89743632;4136.02564082;3844.10256327
3846.41025558;4632.17948802;5449.48718206;4201.66666660;3579.35897297;3912.05128136;6.66665771;-0.00000896;2140.25640581;3780.12820416;3419.87179314;4109.61538434;3348.58974172;4403.97435933;4139.10256390;3844.10256327
3878.33333257;4628.20512904;5087.30769412;4205.38461532;3647.69230645;3880.25640950;229.99999153;-0.00000896;2140.38461094;3813.58974269;3452.43589577;4136.41025621;3355.64102377;4404.23076958;4140.64102544;3876.92307616
3912.17948649;4597.82051359;5192.56410458;4207.43589737;3873.97435821;3847.30769148;6.66665771;-0.00000896;2167.05127768;3874.23076847;3386.41025461;4137.43589723;3186.28204906;4403.97435933;4140.89743569;3909.74358905
3943.71794810;4567.17948788;5091.41025822;4236.53846154;3776.02564006;3876.41025565;229.99999153;-0.00000896;2141.02563658;3880.51281975;3354.87179300;4138.07692287;3355.38461351;4402.94871830;4140.76923056;3942.56410194
3975.51281996;4563.20512890;5450.12820770;4239.48717949;3647.94871670;3906.02564033;6.66665771;-0.00000896;2173.84614947;3875.89743514;3387.30769050;4137.30769210;3287.82051081;4404.23076958;4141.92307672;3975.38461483
3978.97435842;4535.89743653;5123.84615573;4241.79487180;3616.02563971;3877.05128129;229.99999153;-0.00000896;2232.94871371;3874.87179411;3414.10256237;4109.23076896;3282.17948517;4405.51282086;4142.56410236;3975.38461483
3977.05128150;4534.87179550;5256.66666882;4271.28205136;3716.02563992;3879.35897360;6.66665771;-0.00000896;2238.20512397;3877.94871719;3515.51281899;4109.48717921;3256.79486971;4403.33333368;4142.56410236;3975.38461483
3976.66666611;4533.58974422;5192.82051484;4272.17948725;3550.12820367;3912.82051213;229.99999153;-0.00000896;2204.48717518;3880.64102488;3287.17948517;4137.56410236;3187.17948496;4402.69230804;4171.02564089;3975.38461483
3974.35897381;4536.15384678;5189.74359176;4274.35897443;3743.84615281;3911.53846085;6.66665771;-0.00000896;2166.15384178;3906.66666598;3355.76922890;4109.74358947;3125.76922841;4430.76923119;4168.58974345;3975.38461483
3973.20512765;4562.43589813;5127.17948906;4274.10256418;3812.17948628;3906.02564033;229.99999153;-0.00000896;2133.33332889;3943.46153784;3512.56410104;4138.71794851;3289.48717748;4403.84615420;4169.35897422;3975.38461483
3944.87179425;4536.66666730;5387.17948962;4267.56410264;3714.61538351;3846.15384532;6.66665771;-0.00000896;2108.07691856;3976.66666611;3448.58974193;4137.30769210;3348.20512633;4405.38461574;4168.33333320;3942.56410194
3941.53846092;4533.07692371;5123.71795060;4207.94871788;3617.17948586;3848.07692225;229.99999153;-0.00000896;2073.33332875;4005.38461490;3446.66666500;4137.30769210;3282.17948517;4403.97435933;4170.12820499;3942.56410194
3912.56410187;4530.00000063;5158.07692503;4176.28205115;3545.12820367;3909.35897367;6.66665771;-0.00000896;2068.20512362;3975.89743535;3481.53845994;4136.79487159;3218.46153631;4400.25641061;4169.48717935;3909.61538392
3908.84615316;4531.79487242;5257.17948934;4168.97435884;3617.43589612;3941.41025579;229.99999153;-0.00000896;2068.58973901;4007.05128157;3349.61538274;4137.17948697;3318.20512626;4404.48717984;4171.41025628;3909.61538392
3878.97435821;4536.28205191;5155.76923272;4109.23076896;3716.41025530;3944.48717887;6.66665771;-0.00000896;2073.33332875;4008.84615336;3384.48717768;4136.53846133;3254.61538253;4402.30769266;4172.30769217;3876.79487103
3845.38461455;4564.61538531;5160.38461733;4043.97435856;3939.74358912;3911.92307623;229.99999153;-0.00000896;2134.87179043;4041.66666625;3418.46153673;4109.87179460;3286.28204927;4402.69230804;4172.05128192;3843.84615302
3808.97435807;4567.69230839;5187.94871997;4010.12820465;3741.66666563;3846.66666584;6.66665771;-0.00000896;2171.15384178;4071.66666632;3546.66666521;4136.79487159;3250.89743382;4404.35897471;4173.71794858;3811.02564013
3747.94871691;4568.97435967;5290.00000223;4008.07692259;3617.17948586;3843.33333250;229.99999153;-0.00000896;2171.41025204;4109.74358947;3288.33333132;4139.23076903;3579.10256272;4402.56410292;4174.23076910;3745.38461435
3714.61538351;4597.82051359;5155.76923272;3978.71794817;3516.66666514;3844.87179404;6.66665771;-0.00000896;2105.64102113;4201.02564096;3448.33333167;4137.30769210;3253.71794664;4403.58974394;4175.64102551;3712.56410146
3683.84615267;4600.12820590;5351.15384852;3974.61538406;3615.76922945;3748.33333229;229.99999153;-0.00000896;2071.66666208;4241.92307693;3255.12820305;4138.71794851;3322.82051088;4401.79487215;4201.66666660;3679.74358857
3681.02563985;4600.38461615;5092.82051463;3945.12820451;3678.07692190;3682.30769113;6.66665771;-0.00000896;2067.94871337;4336.02564124;3386.79486999;4139.35897415;3418.97435724;4402.30769266;4202.05128199;3679.74358857
3680.12820395;4598.46153923;5185.64102766;3945.89743528;3545.25640880;3676.41025523;229.99999153;-0.00000896;2072.69230311;4400.51282086;3417.82051109;4139.61538441;3384.10256230;4401.66666702;4203.71794865;3679.74358857
3681.15384498;4568.84615454;5091.79487361;3941.02564040;3545.51281906;3646.02563978;6.66665771;-0.00000896;2073.71794414;4437.94871837;3448.58974193;4140.38461518;3317.94871601;4400.76923112;4204.23076917;3679.74358857
3682.30769113;4564.35897506;5416.79487430;3940.76923015;3745.38461435;3580.38461400;229.99999153;-0.00000896;2068.97435439;4500.38461594;3384.10256230;4138.97435877;3421.02563929;4400.12820548;4203.97435891;3679.74358857
3714.23076812;4532.56410319;5092.94871976;3943.71794810;3744.10256306;3581.53846015;6.66665771;-0.00000896;2037.05127740;4567.82051352;3447.82051116;4138.97435877;3453.97435731;4400.51282086;4205.89743583;3712.56410146
3746.92307588;4503.33333389;5190.89743792;3943.33333271;3905.76923008;3611.15384484;229.99999153;-0.00000896;2007.43589271;4632.43589827;3512.56410104;4142.82051262;3483.07692148;4398.33333368;4206.53846147;3745.38461435
3780.76922980;4497.56410312;5026.92307859;3939.61538399;3777.43589647;3580.76922938;6.66665771;-0.00000896;2006.53845682;4693.97435995;3317.43589549;4143.20512800;3582.05128067;4398.20512856;4207.69230763;3778.20512724
3841.79487096;4468.71794921;5219.74359183;3939.10256348;3512.82051130;3552.30769085;229.99999153;-0.00000896;2035.38461073;4699.23077021;3352.30769044;4138.33333313;3157.30769002;4398.33333368;4234.10256411;3843.84615302
3879.48717873;4464.87179536;5157.56410451;3939.74358912;3746.79487076;3550.64102419;-0.00000896;-0.00000896;2037.69230304;4732.82051387;3355.51281864;4141.41025621;3421.28204955;4399.23076958;4233.84615385;3876.66666591
3912.94871726;4435.64102606;5323.33333563;3908.97435828;3807.82051192;3516.02563950;-0.00000896;-0.00000896;2138.46153402;4760.12820624;3512.05128053;4141.66666646;3387.69230589;4397.94871830;4234.23076923;3909.35897367
3941.28205066;4431.28205170;5125.89743778;3906.66666598;3809.23076833;3517.43589591;-0.00000896;-0.00000896;2169.99999563;4728.07692412;3451.92307526;4141.92307672;3416.28204955;4372.82051310;4234.74358975;3942.17948656
3943.71794810;4404.35897471;5186.66666869;3880.64102488;3913.58974290;3551.53846008;229.99999153;-0.00000896;2200.25640595;4760.12820624;3381.66666486;4169.23076910;3222.56410041;4371.92307720;4235.12820513;3942.17948656
3971.28205073;4404.74359009;5122.30769419;3879.48717873;3815.12820423;3514.23076771;229.99999153;-0.00000896;2237.43589320;4765.00000112;3348.84615197;4142.82051262;3316.02563908;4373.07692336;4235.38461539;3974.99999945
3973.46153791;4404.74359009;5453.07692565;3906.92307623;3781.79487083;3448.46153680;229.99999153;-0.00000896;2267.82050866;4825.51282177;3420.51281878;4173.20512807;3348.20512633;4398.46153881;4236.28205129;3974.99999945
3975.89743535;4400.51282086;5090.00000181;3910.38461469;3779.23076826;3416.53845981;229.99999153;-0.00000896;2300.76922667;4826.02564228;3414.10256237;4169.99999986;3414.61538288;4372.82051310;4236.92307693;3974.99999945
3976.53846099;4371.28205156;5186.53846356;3912.30769162;3578.97435759;3448.97435731;-0.00000896;-0.00000896;2303.97435488;4864.74359107;3581.79487041;4172.30769217;3347.94871608;4370.64102592;4236.79487180;3974.99999945
4004.35897388;4369.87179515;5061.79487354;3940.51281989;3847.30769148;3447.56410090;-0.00000896;-0.00000896;2300.38461129;4862.82051414;3288.46153645;4143.33333313;3156.53845925;4371.79487208;4234.35897436;4007.94871747
4007.05128157;4368.97435926;5219.10256619;3943.84615322;3811.79487090;3416.15384442;-0.00000896;-0.00000896;2302.17948308;4891.92307832;3353.07692120;4172.05128192;3388.46153666;4370.00000028;4238.33333334;4007.94871747
4007.43589695;4367.17948746;5159.61538656;3943.71794810;3711.79487069;3381.15384435;-0.00000896;-0.00000896;2336.15384213;4895.25641165;3416.28204955;4171.02564089;3381.92307512;4370.00000028;4236.53846154;4007.94871747
4006.92307644;4340.25641047;5223.84615593;3941.41025579;3647.17948593;3352.82051095;-0.00000896;-0.00000896;2366.41025245;4925.12820659;3545.76922931;4170.25641012;3255.12820305;4368.84615413;4238.84615385;4007.94871747
4007.94871747;4337.82051303;5158.97436092;3944.35897374;3778.97435801;3320.38461344;-0.00000896;-0.00000896;2368.71794476;4929.35897582;3349.23076736;4170.89743576;3256.02563894;4368.71794900;4239.23076923;4007.94871747
4009.48717900;4336.28205149;5190.00000202;3975.38461483;3715.64102453;3256.92307484;-0.00000896;-0.00000896;2429.23076541;4991.79487340;3417.69230596;4170.51282038;3125.12820277;4367.56410285;4236.15384616;4007.94871747
4008.46153798;4307.56410271;5186.15384817;3977.69230714;3943.33333271;3252.94871587;-0.00000896;-0.00000896;2463.07691933;5022.43589911;3383.58974179;4172.05128192;3318.33333139;4368.71794900;4240.12820513;4007.94871747
4005.89743541;4301.41025655;5122.69230957;3978.07692252;3808.58974269;3219.74358759;-0.00000896;-0.00000896;2467.82050907;5025.00000167;3415.38461365;4171.41025628;3383.71794692;4367.82051310;4240.00000000;4007.94871747
3977.30769176;4266.92307700;5158.33333528;3978.46153791;3712.69230658;3187.82051060;-0.00000896;-0.00000896;2495.89743222;5028.84615552;3414.74358801;4172.05128192;3388.33333153;4369.23076951;4240.38461539;3975.12820458
3972.94871740;4235.76923077;5121.28205316;4006.15384567;3484.23076764;3155.89743361;-0.00000896;-0.00000896;2566.66666313;5029.23077090;3417.17948545;4170.38461525;3158.46153617;4368.20512849;4240.89743590;3975.12820458
3940.89743528;4203.58974352;5387.82051526;4007.94871747;3812.43589654;3188.46153624;-0.00000896;-0.00000896;2632.30768891;5025.12820680;3350.25640838;4174.35897422;3289.35897235;4366.66666695;4241.02564103;3942.30769169
3907.56410187;4174.61538448;5125.89743778;4038.46153805;3846.66666584;3286.28204927;-0.00000896;-0.00000896;2628.33332993;4989.35897596;3387.05128025;4172.05128192;3385.51281871;4366.15384644;4266.66666674;3909.48717880
3877.94871719;4206.66666660;5192.30769433;4069.87179453;3813.33333243;3415.25640852;-0.00000896;-0.00000896;2527.94871434;4963.07692461;3453.20512654;4174.61538448;3418.20512647;4366.02564131;4266.79487187;3876.79487103
3877.82051206;4269.23076930;5025.12820680;4073.58974325;3647.69230645;3384.74358794;-0.00000896;-0.00000896;2469.61538087;4960.00000153;3381.92307512;4175.76923063;3315.25640831;4340.25641047;4269.23076930;3876.79487103
3878.33333257;4303.84615399;5191.79487381;4073.84615350;3711.41025530;3256.15384407;-0.00000896;-0.00000896;2499.87179119;5023.84615552;3348.71794685;4174.10256397;3315.12820319;4365.51282079;4267.82051289;3876.79487103
3880.76923001;4332.43589765;5156.28205323;4073.97435863;3809.10256320;3189.61538240;-0.00000896;-0.00000896;2500.76922709;5089.87179668;3352.30769044;4173.84615371;3157.69230540;4340.25641047;4241.66666667;3876.79487103
3908.20512751;4332.82051303;5319.10256640;4074.23076889;3974.48717894;3218.84615170;-0.00000896;-0.00000896;2466.92307317;5120.38461726;3383.71794692;4172.69230756;3319.99999806;4338.46153867;4268.84615392;3909.61538392
3911.92307623;4335.12820534;5089.10256591;4070.89743555;3910.76923008;3220.76922862;-0.00000896;-0.00000896;2433.33332952;5157.56410451;3515.64102412;4173.58974345;3321.79486985;4339.87179508;4269.87179495;3909.61538392
3945.25640963;4339.35897457;5186.15384817;4070.12820478;3486.28204969;3186.53845932;-0.00000896;-0.00000896;2463.71794497;5192.05128407;3448.58974193;4172.43589730;3354.87179300;4338.07692329;4270.51282059;3942.43589681
3978.84615329;4365.25641054;5094.35897617;4072.05128171;3844.61538379;3156.41025412;-0.00000896;-0.00000896;2469.23076548;5225.76923286;3157.43589515;4173.07692294;3090.51281808;4337.05128226;4270.00000007;3975.25640970
4008.97435849;4339.23076944;5452.17948975;4042.30769189;3910.12820444;3123.33333097;-0.00000896;-0.00000896;2501.02563735;5286.28205351;3351.15384428;4174.87179474;3388.58974179;4336.53846175;4270.12820520;4007.94871747
4039.61538420;4335.25641047;5122.17948906;4010.76923029;3843.33333250;3122.17948482;-0.00000896;-0.00000896;2534.61538101;5288.46154069;3549.35897290;4172.43589730;3348.84615197;4337.43589765;4271.02564110;4040.76923036
4042.05128164;4332.94871816;5253.71795088;4007.30769183;3907.56410187;3124.35897200;-0.00000896;-0.00000896;2566.02563749;5290.00000223;3479.23076764;4171.79487166;3288.46153645;4338.84615406;4271.53846161;4040.76923036
4071.02564068;4333.33333355;5220.51282260;4007.05128157;3583.20512682;3152.30769002;229.99999153;-0.00000896;2534.61538101;5291.92307915;3351.79486992;4174.35897422;3153.33333104;4336.92307714;4270.76923084;4073.58974325
4075.89743555;4333.07692329;5188.20513022;4007.94871747;3552.17948572;3122.69230533;0.38460642;-0.00000896;2593.07691961;5319.61538691;3453.07692141;4171.15384602;3349.10256223;4336.66666688;4270.25641033;4073.58974325
4103.20512793;4305.64102578;5153.33333528;4006.79487131;3781.41025544;3125.25640790;0.38460642;-0.00000896;2600.64102217;5321.28205358;3218.33333118;4172.05128192;3283.46153645;4336.02564124;4271.92307700;4106.41025614
4107.17948691;4305.64102578;5355.38461775;4006.02564054;3582.69230631;3152.69230540;1.28204232;-0.00000896;2597.69230422;5319.48718178;3383.84615204;4171.66666653;3218.20512605;4335.76923098;4273.33333341;4106.41025614
4107.43589716;4333.97435919;5094.23077104;4006.41025593;3776.92307595;3090.12820270;229.99999153;-0.00000896;2632.69230429;5351.28205365;3384.23076743;4170.51282038;3254.61538253;4334.23076944;4272.43589751;4106.41025614
4108.58974332;4300.12820527;5186.02564304;4004.74358926;3710.51281940;3055.25640776;229.99999153;-0.00000896;2694.87179161;5352.56410493;3382.56410076;4171.41025628;3185.64102342;4333.97435919;4271.92307700;4106.41025614
4107.82051255;4305.51282066;5291.02564325;4005.12820465;3809.23076833;3053.58974109;229.99999153;-0.00000896;2731.28204809;5356.15384852;3318.71794678;4171.15384602;3157.69230540;4333.84615406;4271.66666674;4106.41025614
4104.99999973;4302.82051296;5186.15384817;4007.17948670;3906.28205059;3087.82051039;229.99999153;-0.00000896;2727.05127886;5386.15384859;3446.15384449;4175.51282038;3353.58974172;4334.61538483;4273.33333341;4106.41025614
4102.56410229;4302.17948732;5159.48718144;4007.82051234;3744.48717845;3024.48717692;229.99999153;-0.00000896;2792.82050977;5385.89743833;3420.25640852;4174.87179474;3384.61538281;4335.12820534;4272.56410264;4106.41025614
4072.43589709;4274.23076930;5159.10256605;4005.89743541;3906.15384546;2993.84615121;229.99999153;-0.00000896;2861.53845862;5419.23077174;3512.82051130;4202.82051275;3123.20512585;4337.69230790;4272.69230777;4073.58974325
4041.28205087;4269.10256418;5321.41025871;4007.30769183;3877.94871719;3025.25640769;229.99999153;-0.00000896;2828.84615086;5418.97436148;3315.25640831;4173.33333320;3219.87179272;4334.10256431;4272.94871802;4040.76923036
4038.58974318;4268.33333341;5157.43589939;4011.02564054;3913.58974290;3087.69230526;229.99999153;-0.00000896;2763.46153534;5419.10256661;3518.84615232;4171.79487166;3348.97435710;4335.64102585;4273.58974366;4040.76923036
4040.38461497;4270.00000007;5160.25641221;4039.74358933;3910.89743521;3027.56410000;229.99999153;-0.00000896;2796.02563797;5420.89743840;3419.74358801;4175.12820499;3382.94871615;4332.82051303;4300.00000014;4040.76923036
4038.33333292;4268.46153853;5258.84615600;4037.05128164;3812.17948628;3020.12820256;229.99999153;-0.00000896;2857.82050991;5453.58974616;3417.82051109;4201.53846147;3251.53845946;4336.28205149;4273.84615392;4040.76923036
4010.89743541;4238.46153847;5188.71795074;4005.76923029;3873.33333257;2988.33333070;229.99999153;-0.00000896;2860.12820221;5455.38461796;3353.20512633;4175.38461525;3385.64102384;4306.15384630;4274.48717956;4007.94871747
4010.64102516;4237.30769231;5158.97436092;4006.41025593;3778.20512724;3055.51281802;229.99999153;-0.00000896;2760.76922765;5456.28205386;3418.46153673;4202.69230763;3221.28204913;4306.79487194;4274.23076930;4007.94871747
4040.25640984;4240.12820513;5351.02564339;4006.15384567;3940.38461476;2991.92307429;229.99999153;-0.00000896;2757.17948406;5516.41025912;3413.84615211;4175.51282038;3349.35897249;4306.41025655;4301.41025655;4040.76923036
4043.58974318;4237.56410257;5122.69230957;3977.82051227;3812.17948628;2954.74358704;229.99999153;-0.00000896;2796.53845848;5519.87179759;3419.23076750;4201.02564096;3387.43589563;4306.92307707;4300.25641040;4040.76923036
4070.38461504;4206.92307686;5159.87179682;3946.53846092;3943.71794810;2924.23076646;229.99999153;-0.00000896;2888.71794587;5546.66666945;3547.56410111;4202.30769224;3381.41025461;4305.51282066;4299.61538476;4073.58974325
4044.74358933;4175.89743576;5087.30769412;3941.92307630;3679.48717831;2861.28204837;229.99999153;-0.00000896;2928.71794594;5586.28205413;3318.84615190;4202.82051275;3253.20512612;4304.61538476;4300.38461553;4040.76923036
4038.71794830;4142.82051262;5317.43589973;3913.46153777;3749.35897332;2793.33333028;229.99999153;-0.00000896;2987.43589480;5646.79487479;3348.20512633;4202.56410250;3185.12820291;4304.35897450;4300.12820527;4040.64102523
4004.35897388;4106.92307665;5127.43589932;3911.28205059;3648.46153721;2829.48717650;229.99999153;-0.00000896;2925.25640748;5613.58974651;3352.94871608;4202.43589737;3349.61538274;4303.20512835;4299.61538476;4007.82051234
3977.56410201;4076.53846119;5352.30769467;3911.41025572;3880.25640950;2961.92307422;229.99999153;-0.00000896;2863.07692016;5518.97436169;3452.94871628;4205.38461532;3385.25640845;4303.84615399;4300.38461553;3974.99999945
3978.97435842;4102.94871767;5125.00000188;3909.61538392;3583.84615246;2928.33333056;229.99999153;-0.00000896;2929.10256133;5488.07692572;3355.76922890;4206.02564096;3153.71794643;4302.82051296;4274.35897443;3974.99999945
3977.69230714;4103.33333306;5192.94871997;3906.41025572;3743.58974255;2857.94871503;229.99999153;-0.00000896;3021.41025384;5547.05128483;3453.58974193;4201.15384609;3254.23076715;4300.64102578;4300.25641040;3974.99999945
3975.12820458;4075.38461504;5120.76923265;3876.28205052;3714.74358864;2830.25640727;229.99999153;-0.00000896;3054.87179237;5519.23077194;3349.87179300;4205.38461532;3156.15384386;4300.12820527;4300.51282066;3974.99999945
3972.30769176;4073.07692273;5449.74359232;3845.64102481;4009.74358926;2857.43589452;229.99999153;-0.00000896;3025.51281795;5518.46154118;3453.07692141;4204.74358968;3354.74358787;4301.28205142;4300.51282066;3974.99999945
3972.82051227;4074.35897402;5094.23077104;3814.87179397;4043.84615343;2862.30768939;229.99999153;-0.00000896;2989.48717685;5520.38461810;3419.48717775;4204.10256404;3354.35897249;4300.38461553;4299.74358989;3974.99999945
3975.76923022;4076.66666632;5185.89743792;3813.20512731;3780.64102467;2829.35897137;229.99999153;-0.00000896;3057.30768981;5486.66666931;3546.02563957;4205.64102558;3387.56410076;4301.53846168;4300.51282066;3974.99999945
4006.66666618;4103.20512793;5225.64102773;3812.69230679;3614.23076791;2762.82050970;229.99999153;-0.00000896;3186.66666445;5486.15384880;3287.69230568;4208.07692301;3188.97435675;4272.82051289;4300.89743604;4007.82051234
4010.64102516;4103.84615357;5186.02564304;3813.58974269;3676.53846036;2724.10256091;229.99999153;-0.00000896;3283.07692107;5513.84615656;3448.84615218;4235.25641026;3254.23076715;4299.48717963;4301.02564117;4007.82051234
4012.17948670;4077.69230735;5185.64102766;3841.53846071;3777.43589647;2728.20512501;229.99999153;-0.00000896;3320.12820319;5486.41025905;3578.46153708;4206.02564096;3284.87179286;4271.79487187;4300.89743604;4007.82051234
4038.84615343;4104.99999973;5222.30769440;3847.56410173;3648.97435773;2764.61538149;229.99999153;-0.00000896;3286.53845953;5455.76923334;3516.79487027;4205.89743583;3219.10256195;4272.94871802;4273.71794879;4040.64102523
4042.56410215;4108.84615357;5186.79487381;3875.76923001;3774.61538365;2761.28204816;229.99999153;-0.00000896;3287.17948517;5451.66666924;3385.25640845;4235.38461539;3223.97435682;4271.79487187;4301.28205142;4040.64102523
4074.35897402;4137.94871774;5192.30769433;3880.25640950;3646.79487055;2728.46153527;229.99999153;-0.00000896;3381.66666486;5420.51282302;3483.33333174;4233.84615385;3157.69230540;4270.64102571;4301.02564117;4073.46153812
4104.74358947;4141.79487159;5152.94871990;3911.53846085;4042.43589702;2726.66666347;229.99999153;-0.00000896;3419.61538288;5421.02564353;3446.28204962;4234.48717949;3223.97435682;4271.79487187;4300.64102578;4106.28205101
4109.87179460;4170.64102551;5319.10256640;3943.20512758;3742.82051178;2694.23076597;229.99999153;-0.00000896;3453.71794705;5418.46154097;3549.87179342;4235.00000000;3316.79486985;4267.69230777;4301.28205142;4106.41025614
4136.66666646;4173.84615371;5122.69230957;3973.71794817;3842.56410173;2693.20512494;69.35896554;-0.00000896;3512.05128053;5450.89743847;3450.89743423;4234.61538462;3420.38461365;4269.61538469;4300.89743604;4139.23076903
4137.30769210;4203.07692301;5155.12820708;3977.17948663;3681.15384498;2663.71794539;0.76922181;-0.00000896;3516.79487027;5454.48718206;3579.74358836;4235.76923077;3122.17948482;4270.12820520;4301.02564117;4139.23076903
4138.71794851;4203.33333327;5419.61538712;4005.12820465;3908.46153777;2599.61538114;229.99999153;-0.00000896;3544.87179342;5486.02564367;3350.38461351;4234.10256411;3318.71794678;4267.82051289;4301.28205142;4139.23076903
4139.23076903;4203.84615378;5121.15384803;4007.82051234;3807.82051192;2627.30768891;0.76922181;-0.00000896;3578.84615246;5488.71795136;3616.53846022;4208.71794865;3383.84615204;4241.53846154;4300.89743604;4139.23076903
4138.33333313;4203.58974352;5190.76923279;4037.94871754;3814.61538372;2629.61538121;-0.00000896;-0.00000896;3551.53846008;5484.23077188;3484.35897276;4208.33333327;3415.12820339;4266.92307700;4301.41025655;4139.23076903
4140.51282031;4205.89743583;5155.76923272;4042.94871754;3713.46153735;2627.82050942;-0.00000896;-0.00000896;3515.76922924;5514.35897707;3384.10256230;4235.38461539;3285.38461337;4270.89743597;4301.15384630;4139.23076903
4168.46153833;4206.66666660;5287.82051505;4071.92307658;3518.33333181;2600.51281704;-0.00000896;-0.00000896;3545.51281906;5520.51282323;3382.82051102;4206.41025634;3157.17948489;4267.17948725;4302.82051296;4172.17948704
4142.82051262;4206.53846147;5153.71795067;4071.41025607;3683.97435780;2594.35897089;-0.00000896;-0.00000896;3578.07692169;5548.71795150;3347.82051095;4234.61538462;3219.61538247;4268.71794879;4300.89743604;4139.35897415
4141.53846133;4206.02564096;5417.82051533;4074.87179453;3649.35897311;2534.48717588;-0.00000896;-0.00000896;3581.92307554;5549.48718227;3419.48717775;4235.25641026;3255.89743382;4241.53846154;4300.89743604;4139.35897415
4141.28205108;4202.94871788;5088.97436078;4074.61538427;3876.66666591;2532.94871434;-0.00000896;-0.00000896;3613.58974227;5554.10256689;3421.15384442;4235.25641026;3285.76922876;4241.28205129;4301.02564117;4139.35897415
4140.51282031;4176.28205115;5192.82051484;4077.05128171;3846.92307609;2564.23076569;-0.00000896;-0.00000896;3643.58974234;5587.30769516;3383.20512640;4236.41025641;3249.74358766;4240.76923077;4301.41025655;4139.35897415
4139.87179467;4174.87179474;5091.53846335;4104.61538434;3841.66666584;2565.12820159;-0.00000896;-0.00000896;3610.38461407;5617.82051574;3316.28204934;4236.15384616;3184.23076701;4268.97435905;4301.28205142;4139.35897415
4143.20512800;4171.53846140;5452.17948975;4104.74358947;3648.71794747;2532.69230408;-0.00000896;-0.00000896;3610.76922945;5615.00000292;3383.20512640;4233.84615385;3387.05128025;4239.61538462;4301.41025655;4139.35897415
4173.84615371;4168.71794858;5122.56410444;4109.23076896;3777.94871698;2599.23076576;-0.00000896;-0.00000896;3552.17948572;5547.94872073;3420.76922904;4208.97435891;3355.38461351;4241.79487180;4301.41025655;4172.17948704
4201.02564096;4170.64102551;5223.07692517;4110.38461511;3682.82051164;2567.30768877;-0.00000896;-0.00000896;3581.15384477;5548.33333612;3515.51281899;4235.89743590;3288.46153645;4241.02564103;4301.15384630;4204.99999993
4203.58974352;4171.02564089;5251.66666882;4109.99999973;3517.56410104;2560.38461184;-0.00000896;-0.00000896;3644.87179362;5547.56410535;3317.69230575;4236.53846154;3121.92307456;4240.12820513;4303.84615399;4204.99999993
4174.48717935;4170.89743576;5187.05128407;4108.97435870;3581.41025502;2561.53845800;-0.00000896;-0.00000896;3650.25640901;5519.23077194;3416.79487006;4234.74358975;3380.89743409;4239.23076923;4301.15384630;4172.17948704
4142.94871774;4170.76923063;5155.51282246;4106.66666639;3714.35897325;2565.12820159;-0.00000896;-0.00000896;3675.89743472;5514.48718220;3419.23076750;4236.28205129;3255.12820305;4239.87179488;4301.41025655;4139.35897415
4137.56410236;4174.10256397;5353.33333570;4106.15384588;4009.48717900;2566.41025287;-0.00000896;-0.00000896;3610.25640894;5547.30769509;3478.97435738;4235.00000000;3315.12820319;4238.84615385;4301.02564117;4139.35897415
4135.51282031;4202.94871788;5154.23077118;4107.05128178;3846.92307609;2534.87179126;-0.00000896;-0.00000896;3584.35897297;5553.33333612;3353.07692120;4235.64102564;3288.20512619;4240.38461539;4301.28205142;4139.35897415
4110.64102537;4202.43589737;5156.41025836;4077.05128171;3749.23076819;2500.25640658;-0.00000896;-0.00000896;3617.17948586;5581.15384901;3545.76922931;4237.05128206;3287.82051081;4238.84615385;4301.53846168;4106.53846126
4110.12820485;4174.74358961;5350.64102801;4076.53846119;3617.17948586;2495.51281683;-0.00000896;-0.00000896;3616.41025509;5584.61538747;3289.48717748;4206.92307686;3256.79486971;4240.51282052;4272.56410264;4106.53846126
4135.51282031;4171.79487166;5125.00000188;4075.89743555;3775.64102467;2528.71794511;-0.00000896;-0.00000896;3614.74358843;5586.66666952;3447.05128039;4235.64102564;3318.20512626;4238.97435898;4301.41025655;4139.35897415
4139.10256390;4171.28205115;5185.89743792;4074.99999966;4043.20512779;2529.23076562;-0.00000896;-0.00000896;3618.07692176;5582.56410542;3418.71794698;4235.76923077;3348.71794685;4237.82051282;4301.41025655;4139.35897415
4141.02564082;4169.61538448;5155.64102759;4073.46153812;3780.12820416;2527.94871434;-0.00000896;-0.00000896;3677.82051164;5581.28205413;3453.07692141;4235.76923077;3190.51281829;4238.33333334;4301.66666681;4139.35897415
4139.35897415;4143.20512800;5350.38461775;4043.71794830;3712.56410146;2527.43589383;-0.00000896;-0.00000896;3683.58974241;5554.23077201;3289.10256209;4236.02564103;3385.12820333;4239.61538462;4301.28205142;4139.23076903
4136.79487159;4142.17948697;5157.82051477;4041.15384574;3681.28205010;2469.10256035;-0.00000896;-0.00000896;3714.10256299;5615.25641318;3481.79487020;4234.61538462;3349.35897249;4237.82051282;4273.07692315;4139.23076903
4136.15384595;4139.48717928;5191.66666869;4040.12820472;3743.97435794;2466.41025266;-0.00000896;-0.00000896;3743.84615281;5613.46154138;3418.33333160;4235.51282052;3351.92307505;4236.41025641;4301.28205142;4139.23076903
4110.38461511;4135.51282031;5028.97436065;4040.64102523;3649.99999875;2462.43589369;229.99999153;-0.00000896;3747.56410153;5614.48718241;3420.51281878;4237.43589744;3249.87179279;4237.43589744;4301.28205142;4106.41025614
4108.71794844;4106.02564075;5186.28205330;4039.10256369;3646.41025516;2463.84615010;229.99999153;-0.00000896;3749.61538358;5614.74359267;3355.76922890;4208.46153840;3386.28204948;4237.43589744;4300.64102578;4106.41025614
4106.92307665;4076.79487145;5153.84615580;4038.84615343;3644.35897311;2495.12820145;229.99999153;-0.00000896;3775.64102467;5585.12820798;3382.94871615;4238.07692308;3118.58974123;4237.69230770;4299.74358989;4106.41025614
4107.43589716;4075.12820478;5323.20513050;4011.92307644;3912.94871726;2499.61538094;229.99999153;-0.00000896;3743.84615281;5582.43590029;3350.64102377;4239.23076923;3287.94871594;4236.66666667;4301.15384630;4106.41025614
4109.61538434;4074.74358940;5121.92307880;4011.41025593;3741.79487076;2528.71794511;0.25640130;-0.00000896;3776.79487083;5547.17948996;3480.64102405;4236.41025641;3250.89743382;4235.64102564;4302.17948732;4106.41025614
4137.17948697;4076.28205094;5158.46154041;4010.76923029;3874.87179411;2500.38461171;-0.00000896;-0.00000896;3811.92307602;5521.15384887;3417.17948545;4238.20512821;3190.76922855;4233.84615385;4300.38461553;4139.23076903
4137.94871774;4103.07692280;5062.17948892;4012.05128157;3646.15384491;2466.02563728;229.99999153;-0.00000896;3906.92307623;5516.41025912;3319.74358780;4239.74358975;3353.07692120;4208.97435891;4273.71794879;4139.23076903
4109.87179460;4103.33333306;5291.41025864;4040.12820472;3614.99999868;2463.97435523;-0.00000896;-0.00000896;3941.66666605;5487.05128470;3349.35897249;4237.94871795;3286.41025440;4236.28205129;4300.38461553;4106.41025614
4105.89743562;4103.58974332;5153.07692503;4042.05128164;3676.02563985;2464.10256035;229.99999153;-0.00000896;3945.12820451;5485.89743854;3452.56410090;4235.00000000;3349.48717761;4234.61538462;4300.12820527;4106.41025614
4104.48717921;4104.48717921;5324.10256640;4044.23076882;3746.02563999;2432.82050900;-0.00000896;-0.00000896;3946.41025579;5515.64102835;3519.61538309;4238.97435898;3315.25640831;4233.97435898;4273.07692315;4106.41025614
4077.69230735;4106.28205101;5127.94871983;4072.94871761;3778.97435801;2431.92307311;229.99999153;-0.00000896;3944.23076861;5514.87179759;3354.87179300;4240.25641026;3321.02563908;4207.69230763;4300.00000014;4073.71794837
4077.05128171;4107.05128178;5192.82051484;4103.20512793;3846.53846071;2436.79486798;-0.00000896;-0.00000896;3940.76923015;5487.43590008;3355.12820326;4237.82051282;3119.61538226;4207.17948711;4300.12820527;4073.71794837
4103.97435870;4108.07692280;5122.30769419;4104.74358947;3877.17948642;2433.20512439;229.99999153;-0.00000896;3945.51281989;5487.30769495;3381.92307512;4237.69230770;3256.53845946;4205.76923070;4299.61538476;4106.53846126
4104.48717921;4108.33333306;5423.46154097;4106.28205101;3746.79487076;2461.53845779;-0.00000896;-0.00000896;3946.41025579;5454.48718206;3480.89743430;4237.43589744;3252.94871587;4206.92307686;4300.12820527;4106.53846126
4106.02564075;4109.99999973;5092.43589925;4106.53846126;3974.23076868;2431.92307311;229.99999153;-0.00000896;3945.64102502;5453.84615642;3414.23076750;4239.87179488;3252.94871587;4207.05128199;4300.00000014;4106.53846126
4108.46153819;4135.64102544;5160.76923272;4109.61538434;3615.89743458;2402.82050893;-0.00000896;-0.00000896;3977.43589688;5453.46154104;3544.87179342;4239.10256411;3384.87179307;4205.38461532;4300.51282066;4106.53846126
4109.74358947;4136.15384595;5156.02564298;4110.64102537;3583.33333195;2401.28204739;229.99999153;-0.00000896;3978.20512765;5482.94872059;3289.61538260;4240.12820513;3186.41025419;4208.07692301;4274.74358982;4106.53846126
4136.53846133;4138.58974339;5188.84615587;4136.28205108;3647.05128080;2402.94871406;-0.00000896;-0.00000896;4006.15384567;5455.12820770;3413.33333160;4237.56410257;3184.74358752;4205.12820506;4299.48717963;4139.35897415
4138.58974339;4139.87179467;5158.97436092;4139.35897415;3711.02563992;2397.94871406;229.99999153;-0.00000896;4038.20512779;5450.76923334;3386.79486999;4240.00000000;3286.15384414;4205.51282045;4299.74358989;4139.35897415
4141.79487159;4142.17948697;5225.38461747;4142.56410236;3808.84615295;2398.07691919;-0.00000896;-0.00000896;4069.87179453;5422.82051533;3449.74358808;4238.71794872;3286.53845953;4205.64102558;4301.41025655;4139.35897415
4169.61538448;4142.56410236;5225.76923286;4173.46153833;3649.99999875;2401.41025252;229.99999153;-0.00000896;4073.20512786;5418.20513071;3355.25640838;4238.58974359;3125.89743354;4206.02564096;4301.02564117;4172.17948704
4174.23076910;4171.02564089;5187.17948920;4201.41025634;3678.20512703;2432.05127823;-0.00000896;-0.00000896;4075.25640991;5419.35897686;3351.92307505;4239.10256411;3218.71794657;4205.25641019;4274.74358982;4172.30769217
4202.43589737;4174.74358961;5186.28205330;4205.64102558;3714.99999889;2433.71794490;229.99999153;-0.00000896;4070.76923043;5416.41025892;3353.97435710;4238.58974359;3250.89743382;4204.10256404;4274.74358982;4205.12820506
4207.56410250;4202.43589737;5155.89743785;4208.58974352;3908.20512751;2433.97435516;-0.00000896;-0.00000896;4039.48717907;5416.92307943;3514.35897283;4238.07692308;3189.99999778;4207.17948711;4299.48717963;4205.12820506
4235.38461539;4205.76923070;5156.02564298;4208.58974352;3814.48717859;2433.97435516;229.99999153;-0.00000896;4044.99999959;5387.43589987;3380.76922897;4240.00000000;3220.89743375;4206.28205122;4271.15384623;4237.94871795
4237.05128206;4208.71794865;5123.84615573;4233.84615385;3811.15384525;2399.48717560;-0.00000896;-0.00000896;4072.82051248;5388.20513064;3551.02563957;4240.51282052;3152.82051053;4204.87179481;4299.61538476;4237.94871795
4238.58974359;4235.00000000;5449.10256668;4236.79487180;3544.61538316;2396.41025252;229.99999153;-0.00000896;4074.87179453;5389.23077167;3288.33333132;4238.46153847;3191.53845932;4206.92307686;4299.48717963;4237.94871795
4239.48717949;4237.43589744;5093.20513002;4239.10256411;3681.92307575;2398.07691919;-0.00000896;-0.00000896;4103.84615357;5420.89743840;3452.56410090;4239.87179488;3316.41025447;4205.89743583;4299.61538476;4237.94871795
4237.30769231;4240.12820513;5190.51282253;4240.89743590;3709.48717838;2401.02563714;229.99999153;-0.00000896;4077.56410222;5423.07692558;3517.82051130;4241.15384616;3250.25640818;4205.51282045;4300.00000014;4237.94871795
4235.38461539;4240.64102564;5155.89743785;4241.15384616;3709.87179376;2399.74358586;-0.00000896;-0.00000896;4041.92307651;5453.84615642;3350.76922890;4239.87179488;3216.92307477;4207.43589737;4299.74358989;4237.94871795
4207.94871788;4240.00000000;5323.58974589;4237.56410257;3809.61538372;2337.94871392;229.99999153;-0.00000896;4040.64102523;5488.71795136;3317.43589549;4237.56410257;3122.94871559;4208.33333327;4300.51282066;4205.12820506
4206.02564096;4238.07692308;5155.38461733;4236.15384616;3843.20512738;2365.89743194;-0.00000896;-0.00000896;4037.69230728;5486.92307957;3518.46153694;4239.23076923;3250.12820305;4205.89743583;4272.56410264;4205.12820506
4204.74358968;4236.41025641;5319.87179717;4235.00000000;3611.02563971;2369.61538066;229.99999153;-0.00000896;4007.94871747;5515.89743861;3448.46153680;4239.35897436;3218.71794657;4206.53846147;4300.00000014;4205.12820506
4203.46153840;4236.41025641;5093.46154027;4208.07692301;3777.94871698;2367.43589348;-0.00000896;-0.00000896;4008.71794824;5520.38461810;3481.28204969;4239.48717949;3284.35897235;4205.89743583;4274.23076930;4205.12820506
4202.30769224;4234.48717949;5159.48718144;4203.58974352;3515.38461386;2370.51281656;-0.00000896;-0.00000896;4008.97435849;5517.43590015;3446.53845987;4240.00000000;3351.41025454;4204.61538455;4299.48717963;4205.12820506
4175.12820499;4206.79487173;5120.12820701;4202.69230763;3648.71794747;2364.99999604;3.33332437;-0.00000896;4009.23076875;5514.48718220;3317.69230575;4240.12820513;3221.66666452;4204.99999993;4300.12820527;4172.30769217
4175.38461525;4203.71794865;5355.12820749;4175.89743576;3813.46153756;2364.99999604;229.99999153;-0.00000896;4039.99999959;5520.51282323;3380.76922897;4237.56410257;3189.23076701;4204.99999993;4300.64102578;4172.17948704
4201.02564096;4201.92307686;5093.07692489;4201.92307686;3678.58974241;2365.64102168;229.99999153;-0.00000896;4070.64102530;5521.92307964;3544.74358829;4236.79487180;3282.43589542;4206.15384609;4300.12820527;4205.12820506
4202.30769224;4175.89743576;5189.74359176;4203.58974352;3844.23076840;2369.35897040;229.99999153;-0.00000896;4076.02564068;5514.74359246;3514.23076771;4237.94871795;3191.41025419;4205.12820506;4299.48717963;4205.12820506
4203.07692301;4176.15384602;5029.35897603;4207.43589737;3748.20512717;2400.12820124;229.99999153;-0.00000896;4105.76923050;5485.89743854;3316.66666472;4241.92307693;3152.43589515;4205.51282045;4299.48717963;4205.12820506
4202.82051275;4201.53846147;5220.12820722;4235.51282052;3517.30769078;2431.15384234;-0.00000896;-0.00000896;4102.82051255;5485.38461803;3450.51281885;4241.41025641;3352.94871608;4206.41025634;4299.74358989;4205.12820506
4203.71794865;4201.28205122;5156.92307887;4236.28205129;3778.20512724;2401.53845765;-0.00000896;-0.00000896;4077.43589709;5481.41025905;3287.17948517;4239.74358975;3320.12820319;4204.61538455;4274.74358982;4205.12820506
4201.41025634;4176.28205115;5349.74359211;4236.79487180;3908.84615316;2400.89743201;-0.00000896;-0.00000896;4075.89743555;5455.51282309;3448.71794705;4239.48717949;3255.38461330;4205.38461532;4299.74358989;4205.12820506
4176.28205115;4176.28205115;5153.33333528;4237.17948718;3841.66666584;2402.17948329;-0.00000896;-0.00000896;4072.05128171;5482.82051546;3421.15384442;4239.74358975;3218.58974144;4204.61538455;4299.87179501;4172.30769217
4201.28205122;4201.15384609;5187.43589945;4237.43589744;3679.74358857;2402.05127816;-0.00000896;-0.00000896;4044.99999959;5482.30769495;3514.74358822;4238.33333334;3150.89743361;4207.30769224;4300.51282066;4205.12820506
4201.53846147;4201.66666660;5155.76923272;4237.94871795;3580.12820374;2398.84614996;-0.00000896;-0.00000896;4070.64102530;5481.92307957;3321.66666472;4238.33333334;3188.33333111;4206.53846147;4300.00000014;4205.12820506
4202.17948711;4202.56410250;5154.35897631;4239.35897436;3549.99999854;2402.30768842;-0.00000896;-0.00000896;4070.51282017;5454.10256668;3447.05128039;4240.76923077;3318.97435703;4206.41025634;4299.74358989;4205.12820506
4202.94871788;4201.92307686;5158.97436092;4240.25641026;3710.25640915;2429.74358593;-0.00000896;-0.00000896;4044.61538420;5455.76923334;3448.07692141;4239.48717949;3385.25640845;4206.15384609;4299.61538476;4205.12820506
4203.84615378;4203.20512814;5125.64102752;4241.92307693;3486.02563943;2432.43589362;-0.00000896;-0.00000896;4041.02564061;5484.48718213;3382.05128025;4237.56410257;3249.61538253;4207.30769224;4301.79487194;4205.12820506
4201.92307686;4203.58974352;5324.35897666;4239.48717949;3648.33333209;2401.92307304;-0.00000896;-0.00000896;4043.71794830;5482.82051546;3351.92307505;4239.61538462;3153.84615156;4205.89743583;4299.74358989;4205.12820506
4176.02564089;4202.17948711;5156.79487374;4238.97435898;3677.94871677;2398.58973970;-0.00000896;-0.00000896;4040.25640984;5483.58974623;3351.28204941;4238.58974359;3254.87179279;4206.41025634;4299.74358989;4172.30769217
4175.64102551;4201.41025634;5192.43589945;4239.48717949;3908.33333264;2397.82050893;-0.00000896;-0.00000896;4038.84615343;5514.48718220;3414.87179314;4238.20512821;3316.66666472;4205.12820506;4299.74358989;4172.30769217
4176.15384602;4201.79487173;5028.71795039;4238.07692308;3840.38461455;2370.12820117;-0.00000896;-0.00000896;4039.61538420;5516.41025912;3419.48717775;4237.43589744;3190.64102342;4206.53846147;4273.58974366;4172.30769217
4201.92307686;4176.28205115;5186.92307894;4239.35897436;3451.15384449;2403.46153457;-0.00000896;-0.00000896;4008.71794824;5487.30769495;3321.41025447;4240.51282052;3355.12820326;4205.25641019;4299.87179501;4205.12820506
4202.94871788;4202.43589737;5124.48718137;4237.05128206;3552.69230624;2432.56409875;-0.00000896;-0.00000896;3978.20512765;5488.97436162;3350.51281864;4238.58974359;3152.82051053;4207.94871788;4299.87179501;4205.12820506
4203.71794865;4202.17948711;5455.76923334;4235.12820513;3781.53846057;2371.15384220;-0.00000896;-0.00000896;4007.82051234;5514.87179759;3350.64102377;4241.15384616;3250.25640818;4205.89743583;4300.38461553;4205.12820506
4204.74358968;4174.23076910;5090.76923258;4207.82051275;3878.97435821;2367.69230374;-0.00000896;-0.00000896;4039.35897395;5516.53846425;3482.30769071;4238.20512821;3284.35897235;4204.99999993;4299.61538476;4205.12820506
4205.64102558;4171.28205115;5186.92307894;4206.53846147;3814.74358884;2366.53845758;-0.00000896;-0.00000896;4070.64102530;5519.87179759;3447.30769064;4237.94871795;3286.02563901;4206.92307686;4299.87179501;4205.12820506
4206.66666660;4169.61538448;5055.64102738;4207.69230763;3650.38461414;2369.87179091;-0.00000896;-0.00000896;4042.17948677;5517.69231041;3316.79486985;4238.84615385;3188.07692086;4205.38461532;4299.87179501;4205.12820506
4206.02564096;4169.74358961;5222.05128414;4235.89743590;3546.66666521;2337.69230367;-0.00000896;-0.00000896;4074.35897402;5548.20513099;3380.51281871;4240.12820513;3317.30769037;4203.33333327;4300.00000014;4205.12820506
4204.61538455;4143.07692287;5157.43589939;4235.76923077;3776.79487083;2363.71794476;-0.00000896;-0.00000896;4107.43589716;5551.15384894;3354.99999813;4238.20512821;3288.71794671;4206.41025634;4299.61538476;4205.12820506
4174.87179474;4138.97435877;5259.23077139;4238.46153847;3875.76923001;2334.48717546;-0.00000896;-0.00000896;4135.51282031;5553.20513099;3420.12820339;4240.51282052;3284.23076722;4206.15384609;4273.97435905;4172.30769217
4169.23076910;4110.64102537;5153.20513015;4239.35897436;3743.33333229;2336.92307290;-0.00000896;-0.00000896;4104.74358947;5579.74359260;3413.84615211;4241.15384616;3185.89743368;4206.02564096;4299.48717963;4172.30769217
4140.25641005;4104.61538434;5159.10256605;4238.71794872;3875.38461462;2303.20512411;-0.00000896;-0.00000896;4104.10256383;5586.02564388;3322.05128011;4239.61538462;3091.92307449;4205.64102558;4274.61538469;4139.48717928
4136.28205108;4072.17948684;5186.02564304;4238.58974359;3712.69230658;2270.51281635;229.99999153;-0.00000896;4077.17948684;5612.30769523;3349.87179300;4241.41025641;3190.89743368;4208.07692301;4274.48717956;4139.48717928
4109.61538434;4011.66666618;5154.87179682;4236.41025641;3676.28205010;2238.20512397;-0.00000896;-0.00000896;4103.20512793;5615.12820805;3448.46153680;4240.25641026;3320.38461344;4205.25641019;4274.48717956;4106.66666639
4107.69230742;3978.33333278;5125.25641214;4235.89743590;3813.71794782;2206.28204698;-0.00000896;-0.00000896;4105.64102537;5586.02564388;3384.48717768;4240.89743590;3383.84615204;4206.92307686;4273.84615392;4106.66666639
4106.79487152;3942.94871733;5158.20513015;4240.12820513;3777.30769134;2206.41025211;0.38460642;-0.00000896;4106.79487152;5580.64102849;3386.92307512;4241.02564103;3187.56410034;4204.99999993;4273.46153853;4106.66666639
4108.97435870;3908.07692239;5094.61538643;4270.25641033;3681.02563985;2236.92307269;229.99999153;-0.00000896;4110.12820485;5548.71795150;3318.07692114;4240.12820513;3023.84615128;4205.12820506;4272.82051289;4106.66666639
4110.12820485;3876.66666591;5190.38461740;4301.15384630;3580.76922938;2301.79486770;229.99999153;-0.00000896;4136.15384595;5484.48718213;3452.17948552;4267.30769238;3219.87179272;4205.38461532;4273.20512828;4106.66666639
4137.05128185;3875.51281975;5158.20513015;4333.07692329;3708.97435787;2400.76922688;229.99999153;-0.00000896;4044.48717907;5382.82051526;3354.23076736;4266.92307700;3319.48717755;4205.25641019;4272.69230777;4139.61538441
4140.89743569;3907.69230700;5221.53846363;4340.12820534;3774.74358877;2461.66666292;229.99999153;-0.00000896;3973.20512765;5320.38461768;3447.69230603;4267.05128212;3354.48717761;4206.28205122;4271.79487187;4139.61538441
4169.99999986;3940.76923015;5254.87179703;4367.30769259;3879.10256334;2364.10256015;229.99999153;-0.00000896;4041.02564061;5284.87179710;3349.35897249;4268.07692315;3154.74358745;4203.33333327;4270.25641033;4172.43589730
4169.48717935;3944.48717887;5186.28205330;4369.10256438;3578.71794733;2267.30768814;229.99999153;-0.00000896;4137.30769210;5285.64102787;3485.38461379;4270.38461546;3183.71794650;4204.87179481;4271.28205136;4172.43589730
4141.02564082;3941.79487117;5190.38461740;4399.48717984;3683.46153728;2140.76922633;229.99999153;-0.00000896;4138.58974339;5352.05128442;3317.94871601;4268.33333341;3351.02563915;4205.25641019;4271.02564110;4139.61538441
4138.33333313;3908.46153777;5087.43589925;4404.10256445;3550.25640880;2204.48717518;229.99999153;-0.00000896;4043.58974318;5357.17948955;3384.87179307;4269.61538469;3322.43589549;4206.15384609;4270.51282059;4139.61538441
4136.92307672;3875.76923001;5159.23077118;4370.76923105;3549.74358829;2266.53845737;229.99999153;-0.00000896;3945.51281989;5351.28205365;3381.28204948;4269.61538469;3282.05128004;4207.56410250;4270.12820520;4139.61538441
4136.92307672;3846.02564020;5121.53846342;4332.94871816;3712.82051171;2201.41025211;229.99999153;-0.00000896;3938.84615322;5291.15384838;3383.84615204;4271.28205136;3125.51281815;4207.05128199;4269.74358982;4139.61538441
4137.17948697;3814.61538372;5450.76923334;4303.20512835;3614.87179356;2133.58973915;229.99999153;-0.00000896;3972.30769176;5322.05128435;3317.56410062;4270.76923084;3216.41025426;4206.02564096;4268.97435905;4139.48717928
4137.94871774;3779.61538365;5094.35897617;4301.92307707;3613.97435766;2041.15384150;229.99999153;-0.00000896;4037.69230728;5320.76923307;3480.64102405;4270.38461546;3253.33333125;4206.92307686;4268.46153853;4139.48717928
4136.02564082;3742.69230665;5190.89743792;4303.58974373;3679.23076805;2037.56409791;229.99999153;-0.00000896;4077.43589709;5290.64102787;3484.48717789;4273.46153853;3158.84615156;4206.02564096;4267.69230777;4139.48717928
4108.97435870;3681.92307575;5120.51282239;4335.38461560;3644.87179362;2042.17948253;229.99999153;-0.00000896;4077.82051248;5285.25641248;3417.30769057;4270.76923084;3255.38461330;4209.10256404;4241.41025641;4106.79487152
4107.56410229;3648.71794747;5320.12820743;4366.02564131;3514.87179335;2071.41025183;229.99999153;-0.00000896;4005.12820465;5289.48718171;3322.69230575;4271.53846161;3124.48717713;4206.28205122;4241.28205129;4106.79487152
4110.51282024;3611.92307561;5156.02564298;4365.76923105;3812.56410166;2068.71794414;229.99999153;-0.00000896;3941.92307630;5286.53846377;3350.51281864;4272.82051289;3321.79486985;4207.56410250;4267.82051289;4106.79487152
4139.23076903;3549.10256265;5257.69230985;4337.05128226;3649.87179362;2037.69230304;229.99999153;-0.00000896;3978.07692252;5225.51282260;3415.89743416;4273.46153853;3223.97435682;4206.79487173;4239.74358975;4139.61538441
4140.64102544;3512.17948565;5087.17948899;4337.56410278;3711.28205017;2035.64102099;229.99999153;-0.00000896;4038.33333292;5158.07692503;3447.82051116;4299.48717963;3153.20512592;4208.20512814;4238.33333334;4139.61538441
4140.38461518;3453.84615218;5160.89743785;4367.30769259;3386.92307512;2070.89743132;229.99999153;-0.00000896;4012.17948670;5025.38461706;3348.20512633;4299.61538476;3353.33333146;4208.58974352;4237.56410257;4139.61538441
4141.15384595;3448.46153680;5121.66666855;4369.23076951;3744.48717845;2167.30768793;229.99999153;-0.00000896;3943.20512758;4892.82051421;3452.82051116;4274.48717956;3122.82051046;4207.69230763;4236.92307693;4139.61538441
4141.02564082;3449.48717782;5388.46154090;4368.97435926;3681.02563985;2203.46153416;229.99999153;-0.00000896;3878.20512744;4792.82051401;3420.25640852;4300.89743604;3256.41025433;4233.97435898;4237.43589744;4139.61538441
4140.89743569;3453.46153680;5095.25641207;4366.79487208;3611.53846022;2202.56409826;229.99999153;-0.00000896;3909.74358905;4734.10256515;3420.51281878;4303.33333348;3218.46153631;4207.94871788;4208.97435891;4139.61538441
4139.23076903;3481.15384456;5220.38461747;4335.64102585;3648.07692183;2169.35896999;229.99999153;-0.00000896;3912.56410187;4698.58974457;3483.58974200;4304.48717963;3158.07692079;4207.82051275;4207.94871788;4139.61538441
4110.38461511;3512.43589591;5285.76923300;4306.66666681;3352.56410069;2166.28204691;229.99999153;-0.00000896;3912.94871726;4633.71794956;3183.84615163;4306.02564117;3283.33333132;4207.82051275;4206.53846147;4106.66666639
4107.82051255;3516.02563950;5160.76923272;4333.07692329;3644.35897311;2103.20512369;229.99999153;-0.00000896;3912.05128136;4565.76923147;3384.10256230;4303.33333348;3092.56410014;4207.94871788;4205.38461532;4106.79487152
4105.12820485;3518.07692155;5156.28205323;4336.41025662;3680.51281934;2168.97435460;229.99999153;-0.00000896;3812.17948628;4501.15384671;3548.46153701;4304.35897450;3223.46153631;4209.10256404;4203.97435891;4106.79487152
4104.74358947;3548.46153701;5320.76923307;4339.23076944;3676.79487062;2169.48717511;229.99999153;-0.00000896;3716.66666556;4433.46153888;3486.02563943;4306.66666681;3251.92307484;4208.58974352;4203.33333327;4106.79487152
4107.43589716;3578.07692169;5157.17948913;4335.25641047;3616.92307561;2106.15384164;229.99999153;-0.00000896;3714.74358864;4402.94871830;3381.66666486;4306.79487194;3189.23076701;4234.10256411;4201.28205122;4106.79487152
4109.99999973;3580.51281913;5189.10256612;4299.87179501;3322.17948524;2039.48717484;229.99999153;-0.00000896;3744.74358871;4399.10256445;3354.74358787;4305.76923091;3154.10256181;4234.35897436;4175.76923063;4106.66666639
4135.51282031;3579.74358836;5155.12820708;4268.71794879;3517.82051130;2038.46153381;229.99999153;-0.00000896;3780.25640929;4365.25641054;3512.94871642;4303.97435912;3190.76922855;4208.58974352;4175.25641012;4139.48717928
4135.64102544;3580.25640887;5218.71795081;4241.66666667;3617.82051150;2106.53845703;229.99999153;-0.00000896;3716.41025530;4304.23076937;3483.84615225;4306.79487194;3092.94871552;4209.10256404;4173.33333320;4139.48717928
4141.66666646;3584.99999861;5153.71795067;4239.61538462;3742.05128101;2133.84614940;229.99999153;-0.00000896;3682.17948600;4273.20512828;3515.38461386;4332.94871816;3219.87179272;4208.33333327;4172.69230756;4139.48717928
4171.79487166;3611.02563971;5153.46154041;4205.89743583;3511.79487027;2006.79486707;229.99999153;-0.00000896;3807.17948628;4240.38461539;3544.61538316;4306.79487194;3058.46153596;4234.35897436;4171.15384602;4172.30769217
4173.71794858;3582.56410118;5383.20513064;4201.15384609;3481.53845994;2004.48717477;-0.00000896;-0.00000896;3938.46153784;4202.56410250;3348.84615197;4305.51282066;2954.48717678;4208.71794865;4168.33333320;4172.30769217
4142.82051262;3578.97435759;5154.87179682;4171.66666653;3584.35897297;2035.51281586;2.43588848;-0.00000896;3939.23076861;4172.69230756;3383.97435717;4307.17948732;3224.48717734;4209.10256404;4169.10256397;4139.35897415
4138.07692287;3550.12820367;5191.53846356;4142.05128185;3648.33333209;2009.48717477;229.99999153;-0.00000896;3971.92307637;4136.28205108;3447.05128039;4334.35897457;3123.07692072;4234.48717949;4168.46153833;4139.35897415
4135.76923056;3546.92307547;5026.15384783;4140.25641005;3481.28204969;2041.53845689;2.43588848;-0.00000896;4006.92307644;4077.05128171;3449.23076757;4332.94871816;3188.97435675;4233.97435898;4142.56410236;4139.35897415
4107.30769203;3545.64102419;5188.58974561;4171.66666653;3321.15384421;2038.07691843;-0.00000896;-0.00000896;4043.84615343;4037.05128164;3320.51281857;4332.69230790;3151.15384386;4235.89743590;4142.17948697;4106.53846126
