Gyro-X;Gyro-Z;AF3;Gyro-Y;T7;Acc-X;Pz;QualityData_1;QualityData_2;Acc-Z;Acc-Y;T8;Mag-X;AF4;Mag-Z;Mag-Y;Mag-X;Gyro-X 
4300.25641040;4206.02564096;4004.99999952;4110.12820485;4238.33333334;2073.97435439;229.99999153;-0.00000896;4172.30769217;4598.07692385;4400.25641061;4303.33333348;4170.76923063;4207.82051275;4208.20512814;4303.46153860
4299.61538476;4202.69230763;4006.66666618;4138.97435877;4370.51282079;2037.82050817;35.89742701;-0.00000896;4201.92307686;4602.05128282;4335.25641047;4305.25641040;4203.58974352;4208.97435891;4206.53846147;4303.46153860
4273.46153853;4171.15384602;4237.69230770;4143.33333313;4501.41025697;2041.66666201;229.99999153;-0.00000896;4074.87179453;4628.58974443;4332.43589765;4306.41025655;4175.64102551;4206.66666660;4208.07692301;4270.64102571
4300.12820527;4169.35897422;4205.12820506;4172.56410243;4340.25641047;2009.87179015;35.89742701;-0.00000896;4008.33333285;4602.43589820;4464.10256459;4305.00000014;4071.79487145;4208.71794865;4208.07692301;4303.46153860
4335.51282073;4171.02564089;4666.92307783;4173.46153833;4928.71795018;2007.43589271;229.99999153;-0.00000896;4039.74358933;4599.48718026;4208.71794865;4301.92307707;4367.43589772;4207.43589737;4207.94871788;4336.28205149
4366.28205156;4168.84615371;4235.12820513;4169.48717935;4136.41025621;2007.05127733;35.89742701;-0.00000896;4108.58974332;4567.82051352;4567.82051352;4302.43589758;4266.66666674;4208.84615378;4207.94871788;4369.10256438
4370.12820541;4140.38461518;4136.92307672;4137.56410236;4565.25641096;2006.41025169;229.99999153;-0.00000896;4170.89743576;4533.97435960;4208.84615378;4301.53846168;4272.30769238;4207.56410250;4207.43589737;4369.10256438
4373.20512849;4137.56410236;4268.58974366;4109.74358947;4370.89743618;2007.82050810;35.89742701;-0.00000896;4171.15384602;4536.15384678;4634.87179571;4301.92307707;4140.25641005;4207.30769224;4206.41025634;4369.10256438
4402.05128240;4136.41025621;4399.74359009;4108.07692280;4732.43589848;2036.15384150;229.99999153;-0.00000896;4174.74358961;4563.33333403;4237.69230770;4303.71794886;4106.02564075;4207.56410250;4207.69230763;4401.92307727
4404.48717984;4139.87179467;4305.51282066;4135.76923056;4370.25641054;2008.97435425;35.89742701;-0.00000896;4173.20512807;4565.76923147;4368.20512849;4304.35897450;4661.79487270;4207.05128199;4206.15384609;4401.92307727
4405.38461574;4141.66666646;4073.58974325;4139.23076903;4434.10256452;2002.69230297;229.99999153;-0.00000896;4239.48717949;4565.00000070;4268.20512828;4305.25641040;4074.61538427;4208.07692301;4207.43589737;4401.92307727
4403.58974394;4141.02564082;4274.23076930;4169.35897422;4565.76923147;1973.33332854;35.89742701;-0.00000896;4302.56410271;4537.30769294;4471.53846203;4303.71794886;4173.97435884;4208.97435891;4207.56410250;4401.92307727
4371.79487208;4138.46153826;4433.33333375;4174.10256397;4661.79487270;1976.92307213;229.99999153;-0.00000896;4332.43589765;4562.82051352;4207.05128199;4305.51282066;4566.66666737;4208.58974352;4206.66666660;4369.10256438
4338.20512842;4138.20512800;4137.69230749;4203.58974352;4435.51282093;2035.38461073;-0.00000896;-0.00000896;4300.12820527;4535.64102627;4596.02564179;4305.51282066;4109.48717921;4207.30769224;4206.92307686;4336.41025662
4305.25641040;4168.20512807;4274.48717956;4207.94871788;4332.56410278;2005.51281579;-0.00000896;-0.00000896;4267.56410264;4534.10256473;4075.64102530;4305.12820527;4567.56410326;4207.30769224;4206.92307686;4303.58974373
4273.46153853;4174.74358961;4338.07692329;4238.71794872;4694.87179585;2004.99999528;-0.00000896;-0.00000896;4237.05128206;4564.87179557;4301.92307707;4306.28205142;3973.71794817;4208.84615378;4206.79487173;4270.76923084
4241.92307693;4203.33333327;4235.76923077;4270.00000007;4403.58974394;1939.99999514;229.99999153;-0.00000896;4238.46153847;4569.74359044;4202.56410250;4302.94871809;4334.10256431;4234.48717949;4206.92307686;4237.94871795
4204.74358968;4201.28205122;4268.46153853;4274.35897443;4504.35897492;1909.48717456;229.99999153;-0.00000896;4241.92307693;4598.71794949;4206.28205122;4303.07692322;4301.28205142;4235.12820513;4206.92307686;4205.12820506
4139.87179467;4170.38461525;4170.51282038;4303.71794886;4464.74359023;1907.05127712;229.99999153;-0.00000896;4266.66666674;4602.30769308;4372.69230797;4303.33333348;4010.64102516;4233.97435898;4208.58974352;4139.48717928
4075.51282017;4139.23076903;4430.76923119;4306.02564117;4463.58974408;1937.82050796;229.99999153;-0.00000896;4240.89743590;4600.76923154;4138.33333313;4305.51282066;4075.64102530;4207.82051275;4206.66666660;4073.84615350
3979.10256355;4109.10256383;4236.53846154;4307.56410271;4332.56410278;1939.10255924;-0.00000896;-0.00000896;4335.89743611;4595.64102641;4075.89743555;4304.23076937;4404.61538497;4233.97435898;4206.66666660;3975.38461483
3873.97435821;4102.82051255;4268.97435905;4335.00000021;4468.46153895;1977.17948239;-0.00000896;-0.00000896;4402.05128240;4600.12820590;4268.71794879;4302.30769245;4237.56410257;4207.82051275;4206.28205122;3877.05128129
3776.66666570;4103.07692280;4171.92307679;4334.61538483;4335.25641047;2038.84614919;-0.00000896;-0.00000896;4332.69230790;4634.61538545;4366.41025669;4303.46153860;4533.84615448;4208.33333327;4204.99999993;3778.58974262
3648.84615260;4106.02564075;4335.38461560;4336.28205149;4635.12820597;2041.53845689;-0.00000896;-0.00000896;4203.71794865;4666.53846245;4469.74359023;4303.20512835;4043.20512779;4234.61538462;4206.28205122;3647.30769106
3582.30769092;4109.87179460;4368.71794900;4339.23076944;4693.97435995;2068.97435439;-0.00000896;-0.00000896;4102.94871767;4698.33333431;4465.89743639;4304.35897450;4794.23077042;4207.05128199;4206.28205122;3581.66666528
3549.87179342;4141.79487159;4400.25641061;4369.48717977;4633.07692391;2070.76922619;-0.00000896;-0.00000896;4011.02564054;4693.46153944;4239.48717949;4302.30769245;4268.84615392;4207.43589737;4207.30769224;3548.84615239
3547.17948572;4169.61538448;4601.28205205;4369.87179515;4988.84615545;2071.92307234;-0.00000896;-0.00000896;4010.38461490;4661.41025732;4694.23077021;4303.58974373;4563.20512890;4208.71794865;4206.53846147;3548.84615239
3546.02563957;4174.48717935;4632.30769315;4372.30769259;4896.41025780;2075.51281593;-0.00000896;-0.00000896;3945.12820451;4695.38461636;4660.76923168;4304.61538476;4830.25641151;4207.17948711;4206.53846147;3548.84615239
3551.02563957;4204.74358968;4532.05128268;4370.00000028;4536.15384678;2068.71794414;-0.00000896;-0.00000896;3877.69230693;4829.74359100;4465.00000049;4305.00000014;4370.00000028;4208.20512814;4206.02564096;3548.84615239
3618.20512689;4171.02564089;4730.25641130;4338.97435919;4859.35897568;2034.99999535;-0.00000896;-0.00000896;3844.10256327;4664.23077014;4860.12820645;4304.74358989;4799.61538580;4206.28205122;4204.48717942;3614.48717817
3683.20512703;4171.53846140;4696.15384713;4337.05128226;4730.51282156;1975.64102085;-0.00000896;-0.00000896;3878.46153770;4596.79487256;4698.71794969;4304.48717963;4700.64102662;4208.33333327;4205.89743583;3680.12820395
3747.69230665;4170.64102551;4569.74359044;4334.61538483;4667.43589834;1974.87179008;-0.00000896;-0.00000896;3875.64102488;4562.69230839;4533.46153909;4307.30769245;4468.20512870;4207.05128199;4206.41025634;3745.76922973
3811.66666577;4172.43589730;3911.66666598;4333.58974380;4270.89743597;2100.89743138;-0.00000896;-0.00000896;3846.15384532;4467.82051331;4497.30769287;4303.20512835;4140.12820492;4204.99999993;4206.02564096;3811.41025551
3845.51281968;4174.99999986;4400.25641061;4333.07692329;4532.43589807;2071.28204670;-0.00000896;-0.00000896;3906.41025572;4468.20512870;3846.28205045;4304.87179501;4306.53846168;4207.30769224;4203.84615378;3844.23076840
3879.74358898;4204.74358968;4008.20512772;4332.69230790;4208.46153840;2006.02563630;-0.00000896;-0.00000896;3911.92307623;4465.89743639;4435.00000042;4306.15384630;4301.15384630;4206.92307686;4206.79487173;3877.05128129
3911.28205059;4207.30769224;4267.94871802;4337.17948739;4595.89743667;1970.51281572;-0.00000896;-0.00000896;3940.89743528;4468.07692357;4272.05128212;4304.35897450;4266.92307700;4206.28205122;4206.53846147;3909.87179418
3941.53846092;4207.43589737;4173.33333320;4339.87179508;4371.92307720;1972.69230290;-0.00000896;-0.00000896;3907.17948649;4470.64102613;4470.00000049;4302.17948732;4143.33333313;4206.53846147;4208.97435891;3942.69230707
3945.12820451;4206.41025634;4595.51282128;4339.35897457;4694.87179585;1974.10255931;-0.00000896;-0.00000896;3879.87179411;4498.71794928;4043.71794830;4305.38461553;4238.84615385;4205.76923070;4206.41025634;3942.69230707
3977.17948663;4205.64102558;3775.38461442;4334.61538483;4010.51282003;2005.12820041;-0.00000896;-0.00000896;3877.82051206;4529.61538524;4435.25641068;4303.97435912;4333.07692329;4206.92307686;4203.71794865;3975.51281996
4005.76923029;4208.58974352;4467.94871844;4301.15384630;4436.53846196;2069.99999542;-0.00000896;-0.00000896;3907.30769162;4534.48718012;4141.28205108;4303.07692322;3880.25640950;4207.69230763;4206.53846147;4008.20512772
4009.99999952;4239.87179488;4273.58974366;4271.02564110;4403.84615420;2036.79486714;-0.00000896;-0.00000896;3942.43589681;4563.71794942;4337.43589765;4305.12820527;4201.28205122;4203.97435891;4205.89743583;4008.20512772
4037.69230728;4267.43589751;4398.84615420;4239.74358975;4467.94871844;2006.92307220;-0.00000896;-0.00000896;3975.51281996;4597.56410333;4104.35897408;4303.97435912;4201.02564096;4206.92307686;4206.66666660;4041.02564061
4040.25640984;4271.15384623;4204.35897429;4236.92307693;4467.94871844;2041.15384150;-0.00000896;-0.00000896;3944.99999938;4663.33333424;4340.12820534;4303.84615399;3971.66666611;4204.61538455;4206.92307686;4041.02564061
4070.76923043;4299.48717963;3809.10256320;4207.30769224;4233.84615385;2139.74358530;-0.00000896;-0.00000896;3911.92307623;4760.76923188;4235.64102564;4304.35897450;4142.30769210;4206.53846147;4207.05128199;4073.84615350
4077.05128171;4305.25641040;4110.25640998;4175.76923063;4434.87179529;2206.53845723;229.99999153;-0.00000896;3908.46153777;4857.94871927;4274.10256418;4304.35897450;4143.46153826;4208.07692301;4207.43589737;4073.71794837
4136.15384595;4334.74358996;4208.71794865;4170.25641012;4502.43589800;2135.38461094;-0.00000896;-0.00000896;3976.92307637;4865.25641158;4501.79487235;4305.12820527;4338.07692329;4207.05128199;4207.82051275;4139.35897415
4168.58974345;4305.00000014;4436.79487222;4138.84615364;4824.61538587;1974.74358495;-0.00000896;-0.00000896;4073.71794837;4863.33333466;4267.05128212;4303.20512835;4303.84615399;4206.66666660;4207.43589737;4172.17948704
4172.43589730;4269.35897443;4404.10256445;4170.76923063;4630.25641109;1936.53845668;-0.00000896;-0.00000896;4104.10256383;4828.33333459;4862.17948850;4305.12820527;4563.58974429;4206.66666660;4206.53846147;4172.17948704
4170.38461525;4235.00000000;4400.64102599;4238.33333334;4731.92307797;1974.99999521;229.99999153;-0.00000896;4070.51282017;4792.94871913;4600.38461615;4303.33333348;4367.69230797;4206.41025634;4207.69230763;4172.30769217
4168.71794858;4205.25641019;4564.48718019;4306.53846168;4631.79487263;1973.20512341;229.99999153;-0.00000896;4009.99999952;4759.35897547;4598.58974436;4301.92307707;4698.84615482;4207.56410250;4207.30769224;4172.30769217
4140.89743569;4203.84615378;4923.58974505;4369.61538490;5060.51282225;1942.56409770;229.99999153;-0.00000896;3944.48717887;4732.05128310;4958.58974512;4301.02564117;4701.02564200;4204.99999993;4208.07692301;4139.61538441
4140.25641005;4201.66666660;4206.15384609;4405.89743625;4501.92307748;1939.61537976;229.99999153;-0.00000896;3907.30769162;4732.69230874;4468.33333382;4303.33333348;4530.76923140;4205.89743583;4207.30769224;4139.61538441
4142.56410236;4173.20512807;4465.25641075;4405.76923112;4566.53846224;2005.64102092;229.99999153;-0.00000896;3814.61538372;4728.46153951;4172.56410243;4304.61538476;3938.46153784;4207.94871788;4207.56410250;4139.61538441
4174.10256397;4175.76923063;3911.41025572;4371.02564131;4273.20512828;2035.89743125;229.99999153;-0.00000896;3749.23076819;4667.82051373;4372.56410285;4303.97435912;4234.35897436;4207.69230763;4207.56410250;4172.43589730
4233.84615385;4203.97435891;3808.33333243;4336.53846175;4270.38461546;2006.92307220;229.99999153;-0.00000896;3743.20512717;4632.43589827;4139.61538441;4303.97435912;3776.79487083;4206.41025634;4208.07692301;4238.07692308
4269.61538469;4207.94871788;4044.61538420;4301.15384630;4370.12820541;2035.89743125;229.99999153;-0.00000896;3714.10256299;4630.38461622;4234.23076923;4301.79487194;3876.41025565;4207.69230763;4207.69230763;4270.76923084
4302.17948732;4236.41025641;3974.61538406;4270.89743597;4398.71794907;2038.20512355;229.99999153;-0.00000896;3678.33333216;4628.58974443;4368.46153874;4302.56410271;4201.15384609;4234.48717949;4208.84615378;4303.58974373
4369.10256438;4268.46153853;4271.66666674;4238.20512821;4630.12820597;2008.97435425;229.99999153;-0.00000896;3646.66666542;4635.64102648;4267.82051289;4304.61538476;4006.92307644;4208.07692301;4208.07692301;4369.23076951
4438.71794914;4273.20512828;4402.82051317;4205.76923070;4433.07692350;2002.05127733;229.99999153;-0.00000896;3713.71794761;4633.33333417;4139.48717928;4302.05128219;4267.56410264;4208.97435891;4208.71794865;4434.87179529
4502.43589800;4273.84615392;4306.53846168;4175.64102551;4563.20512890;1970.89743111;229.99999153;-0.00000896;3842.69230686;4633.33333417;4432.17948760;4302.17948732;4372.43589772;4207.69230763;4208.46153840;4500.38461594
4534.48718012;4269.35897443;4076.28205094;4173.07692294;4237.69230770;1973.84614906;229.99999153;-0.00000896;3879.35897360;4634.74359058;4009.48717900;4303.84615399;3941.79487117;4234.48717949;4208.46153840;4533.20512883
4564.48718019;4268.33333341;3618.07692176;4172.30769217;4240.51282052;2007.56409784;229.99999153;-0.00000896;3912.05128136;4668.58974450;4304.74358989;4302.30769245;3879.87179411;4233.97435898;4207.94871788;4566.02564172
4567.82051352;4241.92307693;4037.30769189;4201.28205122;4171.79487166;2040.25640560;229.99999153;-0.00000896;3946.28205066;4661.53846245;3482.17948559;4301.92307707;4139.74358954;4233.97435898;4208.20512814;4566.15384685
4566.53846224;4241.15384616;4174.99999986;4204.99999993;4398.97435933;2042.69230304;229.99999153;-0.00000896;3972.69230714;4634.74359058;4071.92307658;4302.82051296;4007.43589695;4233.84615385;4208.07692301;4566.15384685
4562.69230839;4268.97435905;4303.97435912;4206.66666660;4365.76923105;2073.58973901;229.99999153;-0.00000896;3940.38461476;4695.89743687;4038.07692266;4304.35897450;4142.82051262;4208.84615378;4235.76923077;4566.15384685
4532.94871858;4271.41025648;4009.35897388;4208.84615378;4236.15384616;2102.17948267;229.99999153;-0.00000896;3941.66666605;4695.76923175;4301.02564117;4302.69230784;4236.02564103;4234.74358975;4208.07692301;4533.33333396
4530.89743653;4270.38461546;4301.92307707;4234.10256411;4830.64102690;2069.61538003;229.99999153;-0.00000896;3878.20512744;4695.89743687;4304.10256425;4305.38461553;4601.66666743;4236.15384616;4233.84615385;4533.33333396
4529.87179550;4269.61538469;4926.15384762;4237.43589744;4832.30769356;2101.79486728;229.99999153;-0.00000896;3841.66666584;4727.82051387;4832.17948843;4303.58974373;4926.66666813;4235.00000000;4208.84615378;4533.33333396
4530.51282114;4240.38461539;4635.12820597;4208.07692301;4761.28205240;2041.66666201;229.99999153;-0.00000896;3840.64102481;4730.38461643;4629.48718032;4302.82051296;4793.58974477;4235.89743590;4208.84615378;4533.33333396
4532.56410319;4208.84615378;4661.92307783;4202.94871788;4665.64102655;2009.35896964;229.99999153;-0.00000896;3841.28205045;4731.92307797;5021.66666834;4303.33333348;4661.92307783;4234.35897436;4207.30769224;4533.33333396
4530.25641089;4202.56410250;4464.10256459;4172.56410243;4894.48718088;2009.61537989;229.99999153;-0.00000896;3780.38461442;4726.79487284;4207.30769224;4306.41025655;4337.05128226;4207.94871788;4208.71794865;4533.20512883
4503.97435953;4201.02564096;4139.61538441;4171.02564089;4171.66666653;2009.87179015;229.99999153;-0.00000896;3812.30769141;4696.02564200;3844.99999917;4302.30769245;4372.69230797;4235.12820513;4208.84615378;4500.38461594
4501.66666723;4174.87179474;3616.15384484;4141.92307672;4104.23076896;2042.30768766;229.99999153;-0.00000896;3907.17948649;4693.84615482;4238.46153847;4303.46153860;3775.51281954;4234.23076923;4208.97435891;4500.38461594
4499.87179543;4176.02564089;3942.94871733;4170.89743576;3943.20512758;2101.02563651;229.99999153;-0.00000896;3910.64102495;4633.33333417;3777.43589647;4304.35897450;4006.15384567;4235.00000000;4236.02564103;4500.38461594
4468.84615434;4206.66666660;4039.87179446;4173.46153833;4266.92307700;2103.71794421;229.99999153;-0.00000896;3944.74358912;4602.94871872;3974.35897381;4300.89743604;4241.02564103;4235.64102564;4208.46153840;4467.56410305
4466.53846203;4238.71794872;4108.71794844;4207.05128199;4405.64102599;2069.23076465;229.99999153;-0.00000896;3972.56410201;4600.64102641;4400.12820548;4304.10256425;4239.61538462;4236.41025641;4206.41025634;4467.69230818
4435.25641068;4301.92307707;4697.43589841;4269.61538469;4829.61538587;2071.66666208;229.99999153;-0.00000896;3972.30769176;4599.61538538;4759.35897547;4303.84615399;4629.10256494;4237.56410257;4209.10256404;4434.87179529
4433.84615427;4333.71794893;4601.02564179;4269.10256418;4796.66666785;2101.28204677;229.99999153;-0.00000896;3908.20512751;4662.30769321;4531.53846217;4303.20512835;4464.74359023;4237.69230770;4236.15384616;4434.87179529
4463.58974408;4336.28205149;5061.79487354;4267.43589751;5024.74359142;2070.12820055;229.99999153;-0.00000896;3911.15384546;4635.76923161;4995.76923237;4300.76923091;5121.66666855;4235.89743590;4233.84615385;4467.69230818
4464.74359023;4336.79487201;4436.15384657;4240.12820513;4661.28205219;2007.94871323;229.99999153;-0.00000896;4009.48717900;4666.28205219;4499.35897492;4302.94871809;4435.76923119;4237.05128206;4233.97435898;4467.69230818
4467.17948767;4333.07692329;4796.28205247;4240.64102564;5127.17948906;1975.76922598;229.99999153;-0.00000896;4010.51282003;4663.07692398;4602.30769308;4301.66666681;4897.43589883;4237.05128206;4234.87179488;4467.69230818
4470.25641075;4301.79487194;4532.56410319;4241.79487180;4629.23077007;2069.23076465;67.56409374;-0.00000896;4004.10256362;4664.87179578;4792.43589862;4303.07692322;4730.12820617;4237.94871795;4234.61538462;4467.69230818
4501.92307748;4270.89743597;4760.51282163;4239.23076923;4697.69230867;2103.71794421;1.41024745;-0.00000896;3975.38461483;4694.74359072;4695.64102662;4300.89743604;4763.20512932;4236.41025641;4234.35897436;4500.51282107
4535.51282114;4271.41025648;4431.79487222;4268.97435905;4563.97435967;2172.69230332;229.99999153;-0.00000896;3972.94871740;4667.69230860;4763.58974471;4302.69230784;4667.94871886;4239.48717949;4234.74358975;4533.33333396
4562.43589813;4268.84615392;4305.76923091;4303.84615399;4169.74358961;2140.12820068;1.41024745;-0.00000896;3977.82051227;4729.48718053;4535.00000063;4303.07692322;4172.05128192;4236.02564103;4234.48717949;4566.15384685
4530.51282114;4235.51282052;3878.97435821;4305.76923091;4336.15384637;2075.76922619;-0.00000896;-0.00000896;3944.61538399;4759.74359086;4201.92307686;4301.53846168;3648.46153721;4237.82051282;4234.87179488;4533.33333396
4470.76923126;4208.20512814;4535.89743653;4338.71794893;4070.89743555;2108.46153395;-0.00000896;-0.00000896;3839.99999917;4761.02564214;4596.92307769;4273.97435905;4727.30769335;4236.41025641;4236.15384616;4467.82051331
4431.02564145;4203.58974352;4830.00000125;4401.02564138;4760.64102676;2007.17948246;-0.00000896;-0.00000896;3842.56410173;4731.28205233;5120.38461726;4274.48717956;4827.05128331;4238.07692308;4234.61538462;4435.00000042
4335.25641047;4138.97435877;4438.58974401;4435.00000042;3979.10256355;1910.51281558;-0.00000896;-0.00000896;3812.82051192;4759.48718060;4403.46153881;4301.79487194;4301.41025655;4239.87179488;4235.25641026;4336.53846175
4236.15384616;4072.56410222;5123.46154034;4464.74359023;4893.46153986;1910.64102071;-0.00000896;-0.00000896;3811.79487090;4731.41025746;5448.46154104;4304.48717963;5185.89743792;4240.64102564;4234.23076923;4238.20512821
4168.97435884;4011.28205080;5157.56410451;4402.43589779;4861.66666799;1939.10255924;-0.00000896;-0.00000896;3843.46153763;4698.84615482;5256.41025857;4303.46153860;5125.38461726;4240.51282052;4233.84615385;4172.43589730
4044.61538420;3976.53846099;5153.58974554;4399.23076958;4696.02564200;2070.25640567;-0.00000896;-0.00000896;3683.97435780;4634.23077007;4862.82051414;4302.94871809;5155.00000195;4239.61538462;4234.61538462;4041.15384574
3977.17948663;4038.33333292;4730.00000105;4369.35897464;4466.53846203;2298.58973949;-0.00000896;-0.00000896;3744.99999896;4727.69230874;4995.51282211;4301.28205142;4926.92307839;4240.51282052;4208.71794865;3975.51281996
3971.79487124;4102.56410229;4137.43589723;4366.28205156;4302.30769245;2167.82050845;-0.00000896;-0.00000896;3812.17948628;4665.00000091;4006.02564054;4300.89743604;3842.17948635;4240.51282052;4208.71794865;3975.51281996
3876.02564027;4072.17948684;4798.71794990;4267.17948725;4466.92307741;1938.07691822;-0.00000896;-0.00000896;3905.89743521;4729.87179592;4861.92307825;4302.94871809;4927.17948864;4241.02564103;4208.20512814;3876.92307616
3778.58974262;4074.61538427;4957.82051435;4235.38461539;4792.05128324;2101.28204677;-0.00000896;-0.00000896;3844.74358891;4699.10256508;4793.20512939;4302.56410271;4895.00000139;4239.61538462;4208.46153840;3778.46153749
3780.12820416;4141.15384595;4400.38461574;4238.46153847;4666.15384706;2170.51281614;-0.00000896;-0.00000896;3779.61538365;4665.76923168;4565.89743660;4301.41025655;4431.92307734;4239.61538462;4209.10256404;3778.46153749
3843.71794789;4174.10256397;4431.66666709;4273.71794879;4370.25641054;2035.64102099;-0.00000896;-0.00000896;3807.43589654;4667.69230860;4239.61538462;4302.56410271;4272.69230777;4238.97435898;4234.48717949;3844.10256327
3878.58974283;4109.61538434;4075.51282017;4301.66666681;4433.84615427;1874.74358474;-0.00000896;-0.00000896;3974.87179432;4697.17948816;4435.89743632;4301.53846168;4365.12820541;4237.56410257;4208.58974352;3876.92307616
3911.41025572;4040.89743548;4601.02564179;4236.28205129;4928.84615531;1972.69230290;-0.00000896;-0.00000896;3971.92307637;4660.64102655;4531.41025704;4302.56410271;4370.76923105;4238.20512821;4208.71794865;3909.74358905
3944.87179425;4010.12820465;4268.33333341;4175.51282038;4206.41025634;2138.58973915;-0.00000896;-0.00000896;3907.56410187;4498.46153902;3877.94871719;4303.84615399;4303.97435912;4238.58974359;4208.84615378;3942.43589681
3979.35897381;4038.46153805;3742.30769127;4236.28205129;3906.15384546;2173.46153409;-0.00000896;-0.00000896;3912.56410187;4502.43589800;3809.87179397;4301.41025655;4006.41025593;4239.10256411;4207.94871788;3975.38461483
4011.92307644;4042.17948677;3518.97435745;4273.97435905;3384.61538281;2106.15384164;-0.00000896;-0.00000896;3974.23076868;4563.84615454;3386.66666486;4303.84615399;3453.71794705;4240.12820513;4207.43589737;4008.20512772
4071.02564068;4039.23076882;4302.94871809;4367.30769259;4469.48717998;2071.28204670;-0.00000896;-0.00000896;4009.74358926;4566.53846224;4207.17948711;4304.48717963;4662.94871886;4239.35897436;4207.69230763;4073.97435863
4073.46153812;4011.79487131;4961.02564256;4399.35897471;4962.05128358;2133.33332889;-0.00000896;-0.00000896;3910.64102495;4566.66666737;4864.61538594;4303.07692322;4860.76923209;4239.87179488;4206.28205122;4073.97435863
4041.41025600;4042.82051241;4728.20512925;4373.20512849;4956.92307846;2167.30768793;-0.00000896;-0.00000896;3807.30769141;4660.51282142;4728.84615489;4301.02564117;4962.05128358;4237.94871795;4207.05128199;4041.15384574
4009.10256362;4109.99999973;4861.53846286;4431.15384657;4796.02564221;2207.05127775;-0.00000896;-0.00000896;3676.92307575;4733.84615489;4891.66666806;4302.56410271;4961.79487333;4238.97435898;4207.82051275;4008.33333285
4044.61538420;4208.97435891;4038.07692266;4438.33333375;4173.33333320;2070.76922619;-0.00000896;-0.00000896;3646.28205004;4665.76923168;4005.51282003;4302.56410271;4202.94871788;4239.48717949;4207.69230763;4041.15384574
4137.05128185;4240.25641026;5289.74359197;4401.79487215;5225.25641234;1977.30768752;-0.00000896;-0.00000896;3580.12820374;4537.30769294;5192.56410458;4299.87179501;5319.87179717;4238.84615385;4207.43589737;4139.61538441
4203.84615378;4238.71794872;5024.35897603;4335.38461560;5120.38461726;2101.53845703;229.99999153;-0.00000896;3515.38461386;4628.97435981;5123.07692496;4305.64102578;5023.71795039;4239.61538462;4207.94871788;4205.25641019
4206.53846147;4173.20512807;4928.58974505;4268.33333341;4963.71795025;1938.07691822;229.99999153;-0.00000896;3449.61538295;4730.89743694;5022.43589911;4300.76923091;4890.64102703;4240.51282052;4207.30769224;4205.12820506
4203.33333327;4074.87179453;4432.17948760;4204.99999993;4765.38461650;1971.15384136;229.99999153;-0.00000896;3552.05128060;4662.17948809;4436.15384657;4303.71794886;4728.58974464;4239.10256411;4207.17948711;4205.12820506
4201.28205122;4007.05128157;3911.53846085;4202.43589737;4497.30769287;1972.94871316;229.99999153;-0.00000896;3483.97435738;4660.76923168;4299.61538476;4300.89743604;3942.05128143;4239.74358975;4208.07692301;4205.12820506
4203.20512814;3975.89743535;4008.71794824;4203.46153840;3579.48717810;1872.30768731;-0.00000896;-0.00000896;3448.58974193;4599.35897513;3842.82051199;4303.33333348;4398.71794907;4239.87179488;4207.69230763;4205.12820506
4206.92307686;3944.23076861;3809.99999910;4201.28205122;3846.28205045;1872.05127705;-0.00000896;-0.00000896;3417.94871622;4565.38461608;4104.87179460;4300.51282066;3682.69230651;4241.28205129;4205.76923070;4205.12820506
4237.05128206;3946.02564040;3678.07692190;4203.07692301;3677.94871677;1904.48717456;229.99999153;-0.00000896;3453.46153680;4500.51282107;3447.17948552;4305.51282066;3647.56410132;4239.23076923;4204.74358968;4237.94871795
4266.79487187;3975.76923022;3974.99999945;4233.97435898;4040.51282010;1972.56409777;-0.00000896;-0.00000896;3516.02563950;4434.10256452;4104.23076896;4303.97435912;3944.74358912;4241.02564103;4204.99999993;4270.76923084
4267.05128212;4039.61538420;3678.84615267;4273.71794879;3485.12820353;2072.94871337;229.99999153;-0.00000896;3584.48717810;4338.33333355;3744.74358871;4304.61538476;3649.99999875;4239.74358975;4202.43589737;4270.76923084
4240.51282052;4104.48717921;4037.94871754;4337.43589765;4107.94871767;2135.76922633;-0.00000896;-0.00000896;3676.15384498;4306.15384630;4136.92307672;4303.84615399;3876.02564027;4241.28205129;4204.87179481;4238.07692308
4235.51282052;4141.41025621;3807.94871705;4368.71794900;3878.07692232;2199.87179057;229.99999153;-0.00000896;3650.51281927;4336.66666688;3972.56410201;4302.17948732;4009.61538413;4241.79487180;4204.74358968;4238.07692308
4236.92307693;4172.17948704;4141.28205108;4336.79487201;4201.41025634;2234.35897012;-0.00000896;-0.00000896;3645.89743465;4337.56410278;4204.10256404;4305.76923091;4005.25640977;4241.28205129;4204.87179481;4238.07692308
4240.89743590;4202.94871788;4009.61538413;4300.51282066;4106.53846126;2266.53845737;229.99999153;-0.00000896;3615.38461407;4338.20512842;4467.94871844;4302.94871809;4076.28205094;4240.89743590;4204.74358968;4237.94871795
4272.05128212;4234.48717949;4467.43589793;4267.43589751;4436.15384657;2238.33332910;-0.00000896;-0.00000896;3583.58974220;4433.33333375;4136.02564082;4304.74358989;4240.76923077;4241.15384616;4204.48717942;4270.76923084
4305.00000014;4236.28205129;4107.05128178;4235.00000000;3938.97435835;2040.12820048;229.99999153;-0.00000896;3613.07692176;4470.51282100;4235.51282052;4305.76923091;4108.71794844;4266.79487187;4204.87179481;4303.58974373
4334.35897457;4206.79487173;4208.97435891;4201.79487173;4238.33333334;2007.69230297;-0.00000896;-0.00000896;3715.25640915;4497.30769287;4039.23076882;4303.97435912;4233.84615385;4239.87179488;4203.33333327;4336.41025662
4340.00000021;4175.38461525;4107.56410229;4173.07692294;4044.87179446;2232.56409833;229.99999153;-0.00000896;3649.48717824;4402.05128240;4336.79487201;4304.61538476;4143.20512800;4240.51282052;4204.23076917;4336.28205149
4431.28205170;4235.00000000;4237.69230770;4201.02564096;4042.05128164;2200.89743159;-0.00000896;-0.00000896;3616.15384484;4400.76923112;4107.43589716;4304.35897450;4241.92307693;4267.94871802;4206.15384609;4434.87179529
4504.48718005;4237.69230770;3880.51281975;4203.58974352;4006.28205080;2205.38461108;229.99999153;-0.00000896;3650.38461414;4497.30769287;4268.58974366;4306.41025655;3942.56410194;4241.92307693;4204.35897429;4500.51282107
4568.33333403;4203.46153840;4302.43589758;4203.71794865;4173.20512807;2071.02563644;-0.00000896;-0.00000896;3676.66666549;4530.12820576;3908.46153777;4303.07692322;3979.23076868;4267.30769238;4203.84615378;4566.15384685
4599.87179564;4142.43589723;4073.84615350;4174.10256397;4041.41025600;1941.79486693;229.99999153;-0.00000896;3615.89743458;4466.02564152;4236.66666667;4304.61538476;4240.64102564;4241.02564103;4203.97435891;4598.84615461
4597.30769308;4139.87179467;4399.10256445;4169.23076910;4268.33333341;1941.41025155;-0.00000896;-0.00000896;3649.48717824;4336.79487201;4168.58974345;4302.69230784;4272.82051289;4268.33333341;4201.28205122;4598.84615461
4564.87179557;4171.66666653;4140.12820492;4172.56410243;4269.48717956;1975.25640547;229.99999153;-0.00000896;3681.66666549;4307.05128219;4437.17948760;4303.84615399;4172.82051269;4241.66666667;4203.84615378;4566.02564172
4530.00000063;4205.25641019;4398.20512856;4208.33333327;4335.51282073;2041.41025176;-0.00000896;-0.00000896;3648.20512696;4336.79487201;4307.56410271;4303.84615399;4238.97435898;4241.02564103;4204.99999993;4533.33333396
4468.97435946;4238.33333334;4075.12820478;4271.28205136;3943.46153784;2041.15384150;229.99999153;-0.00000896;3646.79487055;4399.74359009;4109.48717921;4302.69230784;4072.05128171;4240.51282052;4203.46153840;4467.69230818
4431.02564145;4241.79487180;4169.61538448;4270.00000007;4267.17948725;2008.84614912;-0.00000896;-0.00000896;3585.25640887;4465.00000049;4139.87179467;4302.56410271;4333.58974380;4268.20512828;4203.46153840;4434.87179529
4370.51282079;4271.28205136;4074.74358940;4241.41025641;4135.38461518;2004.61537989;229.99999153;-0.00000896;3580.12820374;4437.05128247;4465.64102613;4304.74358989;4106.53846126;4267.82051289;4202.30769224;4369.23076951
4337.69230790;4273.07692315;4470.25641075;4239.61538462;4403.71794907;2002.94871323;-0.00000896;-0.00000896;3550.64102419;4435.12820555;4206.15384609;4303.71794886;4333.07692329;4268.33333341;4203.84615378;4336.41025662
4305.64102578;4272.82051289;4106.53846126;4239.23076923;4173.58974345;2009.48717477;229.99999153;-0.00000896;3547.05128060;4435.89743632;4301.41025655;4307.56410271;3909.74358905;4241.53846154;4201.53846147;4303.58974373
4303.58974373;4273.46153853;4202.69230763;4267.94871802;4271.15384623;2072.43589285;-0.00000896;-0.00000896;3518.97435745;4430.89743632;3945.38461476;4305.00000014;4239.23076923;4269.10256418;4203.84615378;4303.58974373
4305.25641040;4270.64102571;4135.64102544;4301.53846168;4201.53846147;1973.71794393;229.99999153;-0.00000896;3518.97435745;4431.02564145;4268.58974366;4305.51282066;4108.84615357;4267.69230777;4204.10256404;4303.58974373
4305.51282066;4235.89743590;4241.66666667;4274.35897443;4203.71794865;1976.15384136;-0.00000896;-0.00000896;3577.82051143;4404.48717984;4074.35897402;4303.46153860;4305.76923091;4268.84615392;4203.71794865;4303.58974373
4301.66666681;4203.07692301;4103.07692280;4268.97435905;4365.89743618;2036.92307227;229.99999153;-0.00000896;3580.76922938;4406.02564138;4239.23076923;4304.10256425;4042.17948677;4268.97435905;4201.79487173;4303.58974373
4273.20512828;4175.12820499;4235.76923077;4237.05128206;4241.66666667;2075.76922619;-0.00000896;-0.00000896;3610.51281920;4434.23076965;4138.33333313;4304.48717963;4300.38461553;4268.46153853;4204.23076917;4270.76923084
4272.17948725;4174.87179474;4041.02564061;4203.84615378;4204.35897429;2134.35896992;-0.00000896;-0.00000896;3585.25640887;4403.71794907;4365.76923105;4303.71794886;4044.87179446;4241.79487180;4202.94871788;4270.76923084
4271.41025648;4175.38461525;4301.28205142;4171.66666653;4108.07692280;2134.99999556;36.15383726;-0.00000896;3645.89743465;4430.89743632;4234.10256411;4305.76923091;4069.74358940;4269.35897443;4204.10256404;4270.64102571
4269.74358982;4201.02564096;4201.02564096;4168.58974345;4303.84615399;2102.56409805;229.99999153;-0.00000896;3677.05128087;4433.07692350;4141.92307672;4302.82051296;4010.89743541;4268.97435905;4202.56410250;4270.64102571
4267.82051289;4175.89743576;4168.33333320;4171.28205115;3875.76923001;2104.48717497;229.99999153;-0.00000896;3677.30769113;4432.69230811;3845.38461455;4305.38461553;4269.87179495;4268.33333341;4203.71794865;4270.64102571
4239.48717949;4201.41025634;3847.30769148;4172.69230756;4205.12820506;2106.79486728;229.99999153;-0.00000896;3676.02563985;4433.46153888;4240.76923077;4303.07692322;3844.99999917;4271.28205136;4203.84615378;4237.82051282
4208.33333327;4204.99999993;4270.12820520;4201.02564096;4070.89743555;2102.94871344;229.99999153;-0.00000896;3646.79487055;4464.10256459;3945.12820451;4303.46153860;4042.17948677;4268.07692315;4202.05128199;4205.12820506
4203.07692301;4206.15384609;3946.15384553;4204.99999993;3973.33333278;2075.64102106;-0.00000896;-0.00000896;3644.74358850;4464.74359023;3875.89743514;4303.07692322;3909.74358905;4268.97435905;4203.84615378;4205.12820506
4173.33333320;4202.43589737;4697.30769328;4208.33333327;4693.84615482;2075.76922619;-0.00000896;-0.00000896;3611.02563971;4432.94871837;4595.89743667;4304.61538476;4766.41025753;4267.17948725;4204.10256404;4172.30769217
4169.10256397;4175.25641012;4335.38461560;4205.51282045;4266.66666674;2070.25640567;-0.00000896;-0.00000896;3577.69230631;4371.41025669;4597.30769308;4303.58974373;4601.15384692;4267.56410264;4203.71794865;4172.30769217
4141.53846133;4201.53846147;4501.41025697;4203.84615378;4732.69230874;2105.12820062;-0.00000896;-0.00000896;3548.33333188;4366.02564131;4696.79487277;4303.97435912;4469.48717998;4268.07692315;4203.46153840;4139.48717928
4140.89743569;4206.79487173;4268.33333341;4202.56410250;4340.25641047;2135.25640581;-0.00000896;-0.00000896;3513.07692155;4369.74359003;4206.15384609;4302.05128219;4269.74358982;4268.58974366;4203.58974352;4139.48717928
4140.51282031;4237.82051282;4202.94871788;4202.43589737;4531.02564165;2101.53845703;-0.00000896;-0.00000896;3519.10256258;4398.20512856;4663.97435988;4304.61538476;4235.12820513;4268.71794879;4203.71794865;4139.48717928
4139.35897415;4241.53846154;4074.87179453;4171.92307679;4041.66666625;2075.12820055;-0.00000896;-0.00000896;3584.61538323;4463.58974408;3678.33333216;4305.89743604;4398.58974394;4270.51282059;4204.10256404;4139.35897415
4137.69230749;4268.58974366;4305.38461553;4141.53846133;4529.87179550;2107.30768779;-0.00000896;-0.00000896;3676.41025523;4463.58974408;4369.74359003;4303.20512835;4076.66666632;4267.94871802;4202.82051275;4139.35897415
4135.51282031;4271.28205136;4072.56410222;4141.66666646;4398.97435933;2105.25640574;-0.00000896;-0.00000896;3617.82051150;4465.00000049;4143.33333313;4304.48717963;4205.12820506;4267.56410264;4204.74358968;4139.35897415
4110.25640998;4301.66666681;4367.17948746;4139.61538441;4662.94871886;2037.82050817;-0.00000896;-0.00000896;3615.64102432;4499.61538518;4696.15384713;4302.69230784;4371.79487208;4241.41025641;4203.07692301;4106.53846126
4136.28205108;4301.66666681;4797.69230888;4143.20512800;5352.56410493;1939.87179001;-0.00000896;-0.00000896;3578.33333195;4668.20512911;4698.58974457;4300.89743604;4732.17948823;4267.56410264;4204.99999993;4139.35897415
4173.20512807;4267.30769238;4698.71794969;4174.35897422;4930.76923223;2239.87179064;-0.00000896;-0.00000896;3647.17948593;4435.51282093;4825.76923202;4304.35897450;4926.02564249;4240.89743590;4205.38461532;4172.17948704
4301.15384630;4201.15384609;4957.94871948;4238.58974359;5252.43589959;1744.87178959;-0.00000896;-0.00000896;3024.99999743;4206.79487173;4764.61538573;4306.02564117;4897.05128344;4267.69230777;4202.56410250;4303.58974373
4400.38461574;4172.30769217;4533.84615448;4272.43589751;4729.48718053;1844.48717442;-0.00000896;-0.00000896;2041.28204663;5678.33333639;4633.84615468;4304.87179501;4665.64102655;4266.66666674;4204.48717942;4402.05128240
4602.30769308;4037.30769189;3907.30769162;4075.12820478;4762.17948830;2369.61538066;-0.00000896;-0.00000896;4202.30769224;4338.84615406;3977.05128150;4303.07692322;3742.94871691;4268.71794879;4204.23076917;4598.84615461
4470.89743639;4142.05128185;2563.58974005;4173.58974345;3416.28204955;1937.82050796;-0.00000896;-0.00000896;3880.25640950;4368.97435926;2600.12820166;4303.20512835;2632.56409916;4267.94871802;4204.10256404;4467.56410305
4466.41025690;4138.71794851;1641.79486631;4175.12820499;7975.89744382;1873.97435398;-0.00000896;-0.00000896;3319.99999806;4465.51282100;1610.12819957;4303.58974373;1582.05127643;4267.56410264;4204.48717942;4467.56410305
4469.48717998;4137.05128185;1249.35896804;4201.28205122;7417.82051956;2041.41025176;-0.00000896;-0.00000896;3613.20512689;4369.87179515;1351.66666056;4304.87179501;1411.53845557;4269.35897443;4203.58974352;4467.69230818
4469.23076972;4169.35897422;2434.23076541;4173.20512807;4340.12820534;2038.84614919;-0.00000896;-0.00000896;3615.38461407;4337.05128226;2663.71794539;4305.00000014;2396.92307304;4267.43589751;4203.46153840;4467.56410305
4468.07692357;4175.51282038;2565.12820159;4172.56410243;3315.12820319;2038.33332868;-0.00000896;-0.00000896;3679.87179369;4336.53846175;2497.56409889;4303.97435912;2528.84615024;4268.07692315;4203.07692301;4467.56410305
4465.76923126;4203.71794865;2530.51281690;4142.43589723;2698.20512494;2039.35896971;-0.00000896;-0.00000896;3779.61538365;4333.33333355;2926.28204851;4302.82051296;2758.46153534;4241.79487180;4175.76923063;4467.56410305
4436.79487222;4203.07692301;3978.20512765;4137.94871774;3683.33333216;2072.30768773;-0.00000896;-0.00000896;3876.53846078;4301.92307707;4073.07692273;4303.07692322;4168.71794858;4267.82051289;4204.35897429;4434.74359016
4405.89743625;4204.10256404;4175.76923063;4108.58974332;4172.94871781;2102.56409805;-0.00000896;-0.00000896;3973.84615329;4301.41025655;3811.15384525;4305.76923091;3878.97435821;4268.46153853;4203.46153840;4401.92307727
4371.41025669;4206.15384609;4138.46153826;4107.69230742;4175.25641012;2069.74358516;-0.00000896;-0.00000896;4009.74358926;4305.25641040;3908.84615316;4302.43589758;4070.38461504;4267.17948725;4204.23076917;4369.10256438
4338.84615406;4207.82051275;4273.97435905;4109.35897408;4239.87179488;2038.97435432;229.99999153;-0.00000896;3945.64102502;4336.66666688;3810.89743500;4303.84615399;4075.25640991;4267.69230777;4203.20512814;4336.28205149
4337.43589765;4207.43589737;4008.71794824;4140.64102544;3943.46153784;2072.82050824;-0.00000896;-0.00000896;3940.12820451;4334.48717970;3875.64102488;4301.92307707;4238.84615385;4266.79487187;4205.12820506;4336.28205149
4334.87179508;4207.43589737;3876.53846078;4142.69230749;3712.94871684;2074.87179029;-0.00000896;-0.00000896;3945.25640963;4303.71794886;3976.41025586;4305.25641040;4135.38461518;4267.30769238;4203.20512814;4336.28205149
4307.30769245;4206.28205122;4760.00000112;4141.79487159;4337.94871816;2102.82050831;-0.00000896;-0.00000896;3939.23076861;4307.43589758;4627.82051366;4303.33333348;4730.51282156;4267.43589751;4202.69230763;4303.46153860
4303.33333348;4203.97435891;4300.89743604;4139.99999980;4137.17948697;2068.46153388;229.99999153;-0.00000896;3978.33333278;4335.25641047;4237.30769231;4305.89743604;4502.05128261;4266.92307700;4202.69230763;4303.46153860
4271.53846161;4204.48717942;4468.84615434;4142.69230749;4170.89743576;2009.35896964;229.99999153;-0.00000896;4009.87179439;4338.97435919;4631.53846238;4305.76923091;4465.38461587;4241.79487180;4203.07692301;4270.64102571
4238.71794872;4204.35897429;4271.66666674;4201.02564096;3843.71794789;2002.69230297;229.99999153;-0.00000896;3975.12820458;4369.87179515;4334.48717970;4303.07692322;4075.76923043;4241.66666667;4202.56410250;4237.94871795
4205.38461532;4203.58974352;4399.87179522;4209.10256404;4403.07692343;2042.30768766;229.99999153;-0.00000896;3879.99999924;4371.79487208;4467.94871844;4305.38461553;4405.51282086;4268.84615392;4202.82051275;4205.12820506
4203.84615378;4204.99999993;4532.82051345;4240.51282052;4500.38461594;2042.17948253;229.99999153;-0.00000896;3811.79487090;4403.46153881;4627.69230853;4305.00000014;4635.38461622;4240.25641026;4176.02564089;4205.12820506
4203.58974352;4208.33333327;4500.51282107;4266.79487187;4469.23076972;2002.69230297;229.99999153;-0.00000896;3749.23076819;4435.25641068;4469.23076972;4305.76923091;4176.28205115;4241.79487180;4203.20512814;4205.12820506
4208.20512814;4207.43589737;4498.97435953;4267.17948725;4305.89743604;1942.82050796;229.99999153;-0.00000896;3709.99999889;4431.41025683;4074.48717914;4306.15384630;4566.02564172;4267.94871802;4203.07692301;4205.12820506
4237.56410257;4204.74358968;4369.61538490;4267.05128212;4438.07692350;1941.41025155;229.99999153;-0.00000896;3679.99999882;4404.35897471;4498.20512876;4305.76923091;4400.51282086;4267.94871802;4203.07692301;4237.94871795
4240.12820513;4176.15384602;4174.99999986;4241.79487180;4208.97435891;1938.97435411;229.99999153;-0.00000896;3681.41025523;4402.56410292;4138.71794851;4304.48717963;4105.76923050;4267.30769238;4202.94871788;4237.94871795
4241.79487180;4172.05128192;4596.79487256;4241.15384616;4632.17948802;1939.23076437;229.99999153;-0.00000896;3681.28205010;4401.15384651;4566.79487249;4303.07692322;4436.02564145;4266.92307700;4203.20512814;4237.94871795
4240.64102564;4170.89743576;4140.64102544;4267.56410264;4402.94871830;1936.53845668;229.99999153;-0.00000896;3678.46153728;4398.71794907;4174.48717935;4303.46153860;4430.76923119;4241.15384616;4175.89743576;4237.94871795
4239.87179488;4143.07692287;4793.97436016;4269.74358982;4301.02564117;1940.64102078;229.99999153;-0.00000896;3645.64102439;4399.48717984;4864.10256543;4307.43589758;4562.43589813;4268.84615392;4202.43589737;4237.94871795
4267.94871802;4168.20512807;4404.61538497;4272.43589751;4497.56410312;2002.43589271;229.99999153;-0.00000896;3583.84615246;4366.15384644;4235.00000000;4304.61538476;4438.20512863;4268.46153853;4203.46153840;4270.76923084
4273.07692315;4168.20512807;4271.79487187;4273.33333341;4240.64102564;2009.10255938;229.99999153;-0.00000896;3582.82051143;4339.10256431;4139.99999980;4303.97435912;4400.51282086;4269.35897443;4202.82051275;4270.76923084
4301.41025655;4169.74358961;4532.56410319;4270.64102571;4471.53846203;2072.17948260;229.99999153;-0.00000896;3712.69230658;4306.79487194;4432.17948760;4306.02564117;4402.94871830;4268.46153853;4202.43589737;4303.58974373
4272.82051289;4172.69230756;4076.79487145;4271.79487187;3781.53846057;2103.07691856;229.99999153;-0.00000896;3744.74358871;4271.53846161;4302.05128219;4301.66666681;4465.12820562;4268.33333341;4201.92307686;4270.76923084
4268.71794879;4174.35897422;4464.48717998;4271.41025648;4400.25641061;2037.43589278;229.99999153;-0.00000896;3814.99999910;4273.58974366;4431.15384657;4304.35897450;4468.07692357;4268.71794879;4202.56410250;4270.76923084
4207.05128199;4175.25641012;4236.66666667;4272.05128212;4398.58974394;2035.76922612;229.99999153;-0.00000896;3815.12820423;4303.46153860;4629.74359058;4304.48717963;4305.64102578;4267.56410264;4202.43589737;4205.12820506
4170.12820499;4175.25641012;4334.87179508;4300.76923091;4138.20512800;2074.74358516;229.99999153;-0.00000896;3712.43589633;4336.15384637;4471.02564152;4306.28205142;4239.48717949;4268.07692315;4202.17948711;4172.30769217
4141.92307672;4201.66666660;4635.64102648;4302.69230784;4373.07692336;2133.97435453;229.99999153;-0.00000896;3612.94871663;4335.64102585;4302.56410271;4304.10256425;4333.97435919;4268.58974366;4202.30769224;4139.48717928
4169.99999986;4201.53846147;4398.33333368;4300.76923091;4663.71794963;2138.97435453;229.99999153;-0.00000896;3616.41025509;4305.89743604;4339.61538483;4301.79487194;4405.51282086;4269.48717956;4202.17948711;4172.30769217
4171.15384602;4201.02564096;4204.74358968;4273.84615392;4206.66666660;2166.53845716;229.99999153;-0.00000896;3681.15384498;4300.12820527;4431.53846196;4304.23076937;4302.43589758;4268.46153853;4202.17948711;4172.30769217
4141.79487159;4201.92307686;4536.79487242;4268.97435905;4433.58974401;2107.17948267;229.99999153;-0.00000896;3713.97435787;4304.87179501;4372.56410285;4303.71794886;4241.28205129;4268.46153853;4202.30769224;4139.48717928
4110.51282024;4174.99999986;4432.69230811;4269.48717956;4500.64102620;2103.07691856;229.99999153;-0.00000896;3744.48717845;4303.71794886;4503.97435953;4301.92307707;4336.66666688;4270.12820520;4201.53846147;4106.66666639
4102.69230742;4174.61538448;4498.33333389;4267.69230777;4568.58974429;2105.51281600;229.99999153;-0.00000896;3713.58974248;4332.56410278;4368.84615413;4306.28205142;4239.61538462;4269.10256418;4202.30769224;4106.66666639
4073.71794837;4173.58974345;4368.97435926;4239.23076923;4077.30769196;2072.30768773;229.99999153;-0.00000896;3585.25640887;4365.89743618;4465.38461587;4301.41025655;4632.82051366;4268.97435905;4175.51282038;4073.84615350
4075.38461504;4172.94871781;4499.87179543;4239.35897436;4437.56410298;2071.28204670;229.99999153;-0.00000896;3519.23076771;4368.84615413;4372.69230797;4303.07692322;4238.97435898;4268.20512828;4202.05128199;4073.84615350
4106.66666639;4172.94871781;4436.41025683;4239.35897436;4438.20512863;2009.74358502;229.99999153;-0.00000896;3514.23076771;4337.56410278;4502.94871851;4304.35897450;4463.97435946;4269.87179495;4202.56410250;4106.66666639
4142.56410236;4172.82051269;4568.07692378;4237.82051282;4497.05128261;1971.15384136;229.99999153;-0.00000896;3550.12820367;4339.10256431;4602.05128282;4304.35897450;4274.61538469;4268.33333341;4203.07692301;4139.48717928
4203.33333327;4168.58974345;4405.38461574;4234.48717949;4335.89743611;1939.74358488;229.99999153;-0.00000896;3610.76922945;4306.92307707;4693.46153944;4302.56410271;4270.51282059;4271.02564110;4202.30769224;4205.12820506
4236.92307693;4139.61538441;4402.17948753;4208.07692301;4700.00000098;2004.87179015;229.99999153;-0.00000896;3610.64102432;4274.61538469;4398.97435933;4303.07692322;4499.35897492;4268.46153853;4202.43589737;4237.94871795
4268.97435905;4142.05128185;4207.17948711;4234.23076923;4303.20512835;2039.99999535;229.99999153;-0.00000896;3611.66666535;4272.69230777;4204.74358968;4304.10256425;4306.92307707;4269.35897443;4201.79487173;4270.76923084
4301.02564117;4171.53846140;4533.84615448;4236.41025641;4499.74359030;2073.58973901;229.99999153;-0.00000896;3616.28204997;4268.97435905;4402.30769266;4302.30769245;4431.41025683;4268.84615392;4202.17948711;4303.58974373
4303.71794886;4201.79487173;4431.53846196;4234.23076923;4535.89743653;2104.35896985;-0.00000896;-0.00000896;3645.89743465;4271.92307700;4403.58974394;4304.61538476;4267.05128212;4268.46153853;4201.92307686;4303.58974373
4301.53846168;4208.07692301;4825.64102690;4208.97435891;4860.89743722;2071.28204670;-0.00000896;-0.00000896;3678.71794754;4302.05128219;4433.71794914;4302.05128219;4765.25641137;4266.92307700;4201.15384609;4303.58974373
4270.89743597;4235.76923077;4207.94871788;4207.43589737;3976.66666611;2070.89743132;229.99999153;-0.00000896;3683.46153728;4305.12820527;4760.38461650;4304.74358989;4568.84615454;4269.35897443;4201.79487173;4270.76923084
4236.79487180;4237.69230770;4143.20512800;4233.84615385;4273.20512828;2041.41025176;-0.00000896;-0.00000896;3675.89743472;4338.33333355;4110.38461511;4302.30769245;4107.43589716;4269.87179495;4202.05128199;4237.94871795
4205.51282045;4237.69230770;4503.07692364;4238.71794872;4732.43589848;2039.61537996;-0.00000896;-0.00000896;3645.64102439;4335.89743611;4799.35897554;4301.15384630;4633.58974443;4267.69230777;4201.53846147;4205.12820506
4173.58974345;4236.66666667;4633.71794956;4267.17948725;4568.58974429;2036.15384150;-0.00000896;-0.00000896;3615.38461407;4366.66666695;4500.25641082;4304.10256425;4763.58974471;4270.76923084;4204.35897429;4172.30769217
4170.12820499;4236.02564103;4693.58974457;4269.61538469;4830.25641151;2069.23076465;-0.00000896;-0.00000896;3584.87179349;4367.17948746;4668.33333424;4303.07692322;4339.35897457;4269.74358982;4202.69230763;4172.30769217
4139.48717928;4235.25641026;4633.71794956;4272.82051289;4861.66666799;2041.15384150;-0.00000896;-0.00000896;3610.76922945;4340.38461560;4794.87179606;4304.74358989;4825.89743715;4268.71794879;4202.30769224;4139.48717928
4105.38461511;4234.35897436;4564.48718019;4302.43589758;4467.82051331;2069.23076465;-0.00000896;-0.00000896;3583.71794733;4332.94871816;4693.58974457;4302.56410271;4699.74359072;4269.87179495;4202.05128199;4106.66666639
4072.05128171;4235.76923077;4924.61538608;4304.87179501;5093.07692489;2069.61538003;-0.00000896;-0.00000896;3548.33333188;4337.56410278;4863.46153979;4303.84615399;4895.00000139;4270.00000007;4202.43589737;4073.84615350
4041.41025600;4234.87179488;4730.64102669;4305.51282066;4534.74359037;2041.28204663;-0.00000896;-0.00000896;3548.20512675;4335.51282073;4300.12820527;4301.66666681;4792.82051401;4271.02564110;4202.82051275;4041.02564061
4037.05128164;4234.35897436;4399.35897471;4302.05128219;4663.71794963;2067.94871337;-0.00000896;-0.00000896;3545.64102419;4337.82051303;4792.69230888;4303.97435912;4041.15384574;4269.48717956;4202.69230763;4041.02564061
4011.79487131;4233.84615385;4501.79487235;4272.69230777;4498.84615441;2100.51281600;-0.00000896;-0.00000896;3515.38461386;4337.94871816;4077.56410222;4303.33333348;4464.23076972;4268.71794879;4203.46153840;4008.20512772
4038.07692266;4234.87179488;4203.97435891;4267.30769238;4401.66666702;2068.20512362;-0.00000896;-0.00000896;3516.28204976;4367.30769259;4306.79487194;4301.41025655;4241.53846154;4271.92307700;4202.94871788;4041.02564061
4040.64102523;4208.58974352;4535.76923140;4238.84615385;4503.97435953;2008.84614912;-0.00000896;-0.00000896;3550.38461393;4340.38461560;4205.38461532;4303.07692322;4339.10256431;4267.05128212;4203.20512814;4041.02564061
4042.05128164;4206.15384609;4008.58974311;4235.89743590;4203.46153840;1976.41025162;-0.00000896;-0.00000896;3614.74358843;4367.43589772;4499.23076979;4305.00000014;4437.56410298;4268.46153853;4203.20512814;4041.02564061
4043.71794830;4202.05128199;4208.71794865;4235.12820513;4535.51282114;2037.56409791;-0.00000896;-0.00000896;3616.28204997;4367.30769259;4437.05128247;4305.38461553;3945.51281989;4270.38461546;4206.53846147;4041.02564061
4070.51282017;4202.05128199;4399.61538497;4208.33333327;4435.51282093;2070.64102106;-0.00000896;-0.00000896;3611.53846022;4366.15384644;4172.30769217;4303.84615399;4466.41025690;4269.23076930;4204.23076917;4073.84615350
4076.28205094;4204.61538455;4332.82051303;4208.07692301;4303.58974373;2075.25640567;-0.00000896;-0.00000896;3584.99999861;4370.64102592;4203.20512814;4303.46153860;4269.10256418;4269.23076930;4204.10256404;4073.84615350
4136.28205108;4207.05128199;4339.48717970;4207.69230763;4300.64102578;2071.53845696;-0.00000896;-0.00000896;3613.58974227;4399.23076958;4105.64102537;4305.25641040;4401.92307727;4268.71794879;4204.23076917;4139.48717928
4138.97435877;4207.69230763;3912.56410187;4208.20512814;4108.58974332;2072.43589285;-0.00000896;-0.00000896;3644.10256286;4431.02564145;4467.94871844;4303.58974373;4436.41025683;4269.74358982;4203.58974352;4139.48717928
4142.05128185;4234.48717949;4334.10256431;4235.64102564;4468.97435946;2067.69230311;-0.00000896;-0.00000896;3646.79487055;4432.82051324;4401.92307727;4303.71794886;3877.69230693;4268.33333341;4206.15384609;4139.48717928
4171.66666653;4208.71794865;4236.92307693;4234.61538462;4339.10256431;2070.38461080;-0.00000896;-0.00000896;3646.92307568;4432.43589786;4176.28205115;4301.02564117;4400.12820548;4270.12820520;4203.58974352;4172.30769217
4174.35897422;4208.58974352;4465.64102613;4236.92307693;4467.05128254;2067.82050824;-0.00000896;-0.00000896;3646.53846029;4432.05128247;4339.87179508;4303.58974373;4368.33333362;4269.35897443;4204.23076917;4172.30769217
4202.56410250;4208.07692301;4240.00000000;4236.66666667;4463.97435946;2073.46153388;-0.00000896;-0.00000896;3644.74358850;4435.76923119;4470.64102613;4305.25641040;4466.92307741;4270.76923084;4204.10256404;4205.12820506
4206.79487173;4233.97435898;4269.48717956;4237.30769231;4239.10256411;2104.35896985;-0.00000896;-0.00000896;3643.46153721;4436.66666709;4497.05128261;4302.69230784;4076.15384581;4269.23076930;4204.23076917;4205.12820506
4235.12820513;4234.48717949;4169.35897422;4240.51282052;3906.28205059;2104.10255959;-0.00000896;-0.00000896;3613.97435766;4433.20512863;3841.53846071;4302.82051296;3976.66666611;4270.25641033;4204.10256404;4237.94871795
4237.56410257;4235.00000000;4143.20512800;4240.12820513;4007.94871747;2037.56409791;-0.00000896;-0.00000896;3614.99999868;4436.79487222;4367.56410285;4303.58974373;4268.33333341;4269.35897443;4203.97435891;4237.94871795
4238.20512821;4207.17948711;4072.05128171;4268.58974366;4004.99999952;2006.28204656;229.99999153;-0.00000896;3643.97435773;4434.74359016;4466.79487229;4303.07692322;4266.66666674;4270.38461546;4202.30769224;4237.94871795
4236.02564103;4204.23076917;4206.41025634;4270.38461546;3943.71794810;2039.87179022;229.99999153;-0.00000896;3614.99999868;4404.48717984;3977.30769176;4303.07692322;4103.20512793;4270.12820520;4204.61538455;4237.94871795
4208.07692301;4202.05128199;4301.53846168;4271.53846161;3944.61538399;2074.10255952;229.99999153;-0.00000896;3580.89743451;4372.05128233;3946.28205066;4300.76923091;4365.89743618;4272.05128212;4204.61538455;4205.12820506
4204.48717942;4202.43589737;4366.41025669;4269.48717956;4301.92307707;2073.20512362;229.99999153;-0.00000896;3578.46153708;4370.89743618;4372.43589772;4301.28205142;4464.61538511;4270.51282059;4204.61538455;4205.12820506
4176.02564089;4201.79487173;4073.46153812;4267.56410264;4040.64102523;2069.48717490;1.53845258;-0.00000896;3547.69230624;4367.82051310;4339.23076944;4303.84615399;4365.64102592;4268.84615392;4204.10256404;4172.30769217
4174.23076910;4203.07692301;4336.53846175;4239.23076923;4005.76923029;2101.66666215;38.07691419;-0.00000896;3516.02563950;4369.23076951;4366.41025669;4305.64102578;4235.25641026;4268.84615392;4204.35897429;4172.30769217
4174.10256397;4205.25641019;4503.33333389;4236.28205129;4399.61538497;2073.33332875;229.99999153;-0.00000896;3513.71794719;4371.41025669;4463.97435946;4304.74358989;4299.61538476;4268.58974366;4203.97435891;4172.30769217
4201.02564096;4206.66666660;3939.74358912;4208.33333327;3777.82051185;2036.15384150;38.07691419;-0.00000896;3516.02563950;4366.41025669;3874.87179411;4299.74358989;4141.28205108;4268.20512828;4204.10256404;4205.12820506
4201.15384609;4206.66666660;4207.05128199;4207.17948711;4039.10256369;2038.71794407;229.99999153;-0.00000896;3517.05128053;4367.82051310;4109.23076896;4306.41025655;4043.97435856;4269.61538469;4203.20512814;4205.12820506
4205.25641019;4207.94871788;4204.10256404;4204.87179481;3939.74358912;2075.51281593;38.07691419;-0.00000896;3519.48717796;4372.56410285;4138.58974339;4301.41025655;4138.97435877;4269.87179495;4204.23076917;4205.12820506
4207.43589737;4207.30769224;4234.35897436;4176.15384602;4006.28205080;2072.05127747;229.99999153;-0.00000896;3579.35897297;4372.43589772;4468.33333382;4302.30769245;4399.87179522;4268.58974366;4204.48717942;4204.99999993
4234.23076923;4234.35897436;4038.07692266;4175.51282038;3877.69230693;2041.92307227;38.07691419;-0.00000896;3580.64102426;4398.46153881;3879.48717873;4302.17948732;4202.69230763;4268.97435905;4204.48717942;4237.82051282
4235.76923077;4235.51282052;4437.30769273;4175.38461525;4102.94871767;2035.76922612;229.99999153;-0.00000896;3614.61538330;4405.00000035;3974.74358919;4305.51282066;4075.12820478;4268.33333341;4204.35897429;4237.82051282
4237.94871795;4235.38461539;3972.43589688;4175.12820499;4071.66666632;2039.87179022;38.07691419;-0.00000896;3617.43589612;4405.12820548;4271.28205136;4302.43589758;4106.79487152;4268.84615392;4206.66666660;4237.82051282
4240.38461539;4234.74358975;4141.79487159;4175.89743576;4044.87179446;2041.41025176;229.99999153;-0.00000896;3618.33333202;4432.30769273;4501.53846210;4302.17948732;4110.64102537;4267.94871802;4204.10256404;4237.82051282
4240.12820513;4234.23076923;4201.79487173;4202.05128199;4401.92307727;2042.82050817;38.07691419;-0.00000896;3647.94871670;4405.25641061;4240.00000000;4303.84615399;4072.69230735;4270.12820520;4204.10256404;4237.94871795
4241.28205129;4234.23076923;3944.10256348;4201.92307686;3974.61538406;2071.79486721;229.99999153;-0.00000896;3649.35897311;4405.89743625;4010.76923029;4303.71794886;4108.97435870;4269.35897443;4204.35897429;4237.94871795
4241.79487180;4235.51282052;4009.74358926;4202.69230763;4010.89743541;2036.92307227;38.07691419;-0.00000896;3676.53846036;4432.94871837;4205.89743583;4303.20512835;3944.74358912;4267.94871802;4204.61538455;4237.94871795
4240.00000000;4234.74358975;4171.15384602;4203.20512814;4141.28205108;2039.35896971;229.99999153;-0.00000896;3681.79487062;4438.71794914;4337.94871816;4306.15384630;4267.82051289;4267.43589751;4204.87179481;4237.94871795
4238.07692308;4235.51282052;4337.94871816;4204.48717942;3941.92307630;2042.05127740;38.07691419;-0.00000896;3683.97435780;4466.92307741;4535.89743653;4304.48717963;4268.71794879;4267.30769238;4205.25641019;4237.94871795
4236.79487180;4234.48717949;4471.15384664;4205.51282045;4467.30769280;2073.33332875;229.99999153;-0.00000896;3679.87179369;4469.48717998;4436.15384657;4304.61538476;4400.64102599;4268.20512828;4204.99999993;4237.94871795
4235.76923077;4234.74358975;3814.35897346;4206.15384609;3777.56410160;2069.61538003;38.07691419;-0.00000896;3680.12820395;4497.94871851;3880.64102488;4302.69230784;4110.12820485;4268.58974366;4203.33333327;4237.94871795
4234.87179488;4234.10256411;4307.17948732;4235.00000000;4070.76923043;2069.61538003;229.99999153;-0.00000896;3681.79487062;4499.35897492;4011.53846106;4302.05128219;4105.25640998;4268.58974366;4204.35897429;4237.94871795
4234.35897436;4208.71794865;4104.23076896;4208.97435891;4039.35897395;2069.99999542;38.07691419;-0.00000896;3676.79487062;4502.82051338;4141.28205108;4300.89743604;4300.25641040;4268.97435905;4204.48717942;4237.94871795
4208.33333327;4207.82051275;4174.74358961;4209.10256404;4006.92307644;2070.12820055;229.99999153;-0.00000896;3676.79487062;4499.61538518;4340.12820534;4303.20512835;4201.92307686;4269.35897443;4208.33333327;4205.12820506
4208.84615378;4206.66666660;4074.10256376;4208.71794865;4074.48717914;2069.87179029;38.07691419;-0.00000896;3679.74358857;4500.64102620;4038.07692266;4302.82051296;4201.28205122;4270.38461546;4204.87179481;4205.12820506
4207.56410250;4205.38461532;4235.12820513;4209.10256404;3943.97435835;2042.56409791;229.99999153;-0.00000896;3680.64102446;4470.12820562;4005.12820465;4302.69230784;4239.61538462;4268.58974366;4204.87179481;4205.12820506
4207.05128199;4204.74358968;4269.35897443;4234.74358975;4241.02564103;2040.38461073;38.07691419;-0.00000896;3682.82051164;4466.92307741;4108.58974332;4304.23076937;4173.46153833;4268.33333341;4205.38461532;4205.12820506
4202.69230763;4203.46153840;4073.07692273;4237.69230770;3944.61538399;2068.20512362;229.99999153;-0.00000896;3680.51281934;4468.71794921;4301.92307707;4302.05128219;4105.89743562;4267.43589751;4204.99999993;4205.12820506
4201.15384609;4202.30769224;4139.48717928;4237.43589744;4203.97435891;2069.23076465;38.07691419;-0.00000896;3682.17948600;4471.66666716;4137.30769210;4301.92307707;4135.51282031;4269.87179495;4204.74358968;4205.12820506
4173.97435884;4176.15384602;4039.48717907;4239.87179488;3944.99999938;2073.07691849;229.99999153;-0.00000896;3715.25640915;4469.87179536;3975.76923022;4300.76923091;4206.53846147;4269.48717956;4204.99999993;4172.30769217
4171.66666653;4202.30769224;4006.92307644;4239.35897436;4208.07692301;2074.99999542;38.07691419;-0.00000896;3742.17948614;4496.53846210;4239.23076923;4303.33333348;3942.56410194;4270.00000007;4204.87179481;4172.30769217
4168.33333320;4202.94871788;3880.25640950;4237.69230770;3811.66666577;2073.58973901;229.99999153;-0.00000896;3716.28205017;4499.87179543;4107.94871767;4303.84615399;4267.94871802;4269.35897443;4203.46153840;4172.30769217
4141.28205108;4203.97435891;4138.33333313;4238.07692308;4140.25641005;2041.02563637;-0.00000896;-0.00000896;3747.94871691;4469.61538511;4137.56410236;4302.82051296;4169.74358961;4268.58974366;4205.25641019;4139.48717928
4139.99999980;4202.56410250;4041.02564061;4237.17948718;4039.48717907;2042.69230304;-0.00000896;-0.00000896;3748.71794768;4468.20512870;4074.23076889;4301.66666681;4469.87179536;4268.46153853;4203.58974352;4139.48717928
4138.33333313;4201.28205122;4011.15384567;4237.56410257;4168.20512807;2069.87179029;6.92306796;-0.00000896;3745.76922973;4463.97435946;4136.15384595;4303.20512835;3940.89743528;4268.20512828;4203.33333327;4139.48717928
4137.82051262;4201.92307686;4038.46153805;4238.07692308;4070.51282017;2039.23076458;229.99999153;-0.00000896;3744.87179383;4438.84615427;4170.64102551;4306.41025655;4042.43589702;4269.23076930;4204.99999993;4139.48717928
4138.20512800;4201.28205122;4037.69230728;4240.64102564;3978.33333278;2036.92307227;229.99999153;-0.00000896;3744.74358871;4465.38461587;4009.61538413;4301.15384630;4105.51282024;4267.82051289;4205.25641019;4139.48717928
4138.46153826;4176.15384602;4075.38461504;4269.87179495;4202.30769224;2042.94871330;229.99999153;-0.00000896;3742.17948614;4471.53846203;4498.07692364;4303.07692322;4205.25641019;4267.94871802;4204.99999993;4139.48717928
4139.99999980;4201.66666660;3846.92307609;4300.00000014;3742.69230665;2068.33332875;229.99999153;-0.00000896;3712.05128094;4497.30769287;3910.38461469;4302.56410271;3877.17948642;4268.33333341;4205.25641019;4139.48717928
4141.28205108;4201.66666660;4662.94871886;4302.30769245;4568.58974429;2071.53845696;-0.00000896;-0.00000896;3709.74358864;4497.94871851;4369.35897464;4301.79487194;4531.28205191;4268.46153853;4204.74358968;4139.48717928
4142.69230749;4176.15384602;4238.71794872;4304.74358989;4175.64102551;2073.07691849;-0.00000896;-0.00000896;3679.61538344;4498.97435953;4302.82051296;4302.43589758;4307.43589758;4268.97435905;4205.89743583;4139.48717928
4142.94871774;4201.79487173;4306.15384630;4305.76923091;4273.07692315;2070.38461080;-0.00000896;-0.00000896;3677.43589626;4471.41025690;4074.48717914;4303.58974373;4432.05128247;4267.69230777;4204.99999993;4139.48717928
4143.20512800;4201.79487173;4169.35897422;4305.76923091;4694.10256508;2068.71794414;-0.00000896;-0.00000896;3678.58974241;4502.82051338;4503.97435953;4302.17948732;4532.05128268;4270.51282059;4205.64102558;4139.48717928
4140.89743569;4203.07692301;4400.00000035;4306.02564117;4138.71794851;2073.07691849;-0.00000896;-0.00000896;3616.92307561;4498.84615441;4532.30769294;4300.38461553;4236.53846154;4269.48717956;4204.74358968;4139.48717928
4139.74358954;4204.99999993;4136.02564082;4304.87179501;4206.92307686;2108.07691856;-0.00000896;-0.00000896;3610.38461407;4471.53846203;4141.28205108;4301.41025655;4238.20512821;4268.20512828;4203.58974352;4139.48717928
4139.99999980;4207.56410250;4109.35897408;4303.20512835;4369.87179515;2138.20512376;-0.00000896;-0.00000896;3578.97435759;4529.35897499;4203.20512814;4300.38461553;4106.53846126;4270.64102571;4207.94871788;4139.48717928
4140.51282031;4235.64102564;4400.89743625;4300.00000014;4431.92307734;2103.58973908;-0.00000896;-0.00000896;3580.38461400;4565.51282121;4373.20512849;4303.97435912;4365.89743618;4270.38461546;4205.76923070;4139.48717928
4140.12820492;4236.92307693;4141.53846133;4273.58974366;4370.25641054;2073.71794414;-0.00000896;-0.00000896;3584.99999861;4565.38461608;4498.58974415;4300.76923091;4340.12820534;4271.15384623;4204.48717942;4139.48717928
4139.10256390;4235.64102564;4334.10256431;4270.89743597;4336.15384637;2103.84614933;-0.00000896;-0.00000896;3581.92307554;4569.35897506;4239.48717949;4302.43589758;4368.46153874;4268.20512828;4205.38461532;4139.48717928
4139.74358954;4234.23076923;4535.00000063;4269.23076930;4402.05128240;2139.48717504;-0.00000896;-0.00000896;3550.89743444;4600.12820590;4299.74358989;4301.41025655;4402.05128240;4268.33333341;4204.10256404;4139.48717928
4141.92307672;4235.89743590;4401.41025676;4241.92307693;4566.92307762;2105.51281600;-0.00000896;-0.00000896;3578.07692169;4628.97435981;4530.51282114;4302.05128219;4466.66666716;4270.25641033;4206.15384609;4139.48717928
4142.17948697;4236.28205129;4208.46153840;4269.87179495;4335.76923098;2041.66666201;-0.00000896;-0.00000896;3585.38461400;4630.64102648;4340.38461560;4301.41025655;4339.61538483;4270.76923084;4205.51282045;4139.48717928
4140.64102544;4207.69230763;4537.17948781;4273.07692315;4635.76923161;2040.89743125;-0.00000896;-0.00000896;3610.38461407;4633.33333417;4402.30769266;4300.64102578;4338.71794893;4269.23076930;4205.38461532;4139.48717928
4138.97435877;4203.58974352;4400.12820548;4274.23076930;4436.41025683;2042.17948253;-0.00000896;-0.00000896;3550.89743444;4633.07692391;4370.25641054;4300.89743604;4306.53846168;4271.41025648;4205.76923070;4139.48717928
4138.84615364;4175.89743576;4271.66666674;4274.35897443;4632.17948802;2075.76922619;-0.00000896;-0.00000896;3516.79487027;4600.38461615;4401.66666702;4300.00000014;4038.20512779;4270.76923084;4206.02564096;4139.48717928
4141.53846133;4174.61538448;4564.48718019;4270.12820520;4630.51282135;2106.79486728;-0.00000896;-0.00000896;3486.66666507;4597.56410333;4370.64102592;4303.07692322;4203.97435891;4270.76923084;4205.76923070;4139.48717928
4169.61538448;4175.64102551;4340.38461560;4266.66666674;4498.97435953;2105.76922626;-0.00000896;-0.00000896;3480.51281892;4628.20512904;4500.12820569;4301.15384630;4402.69230804;4271.28205136;4205.76923070;4172.30769217
4172.05128192;4176.28205115;4602.69230846;4239.87179488;4726.66666771;2071.79486721;-0.00000896;-0.00000896;3482.17948559;4628.07692391;4338.58974380;4301.41025655;4400.76923112;4270.89743597;4205.64102558;4172.30769217
4175.64102551;4201.02564096;4300.12820527;4241.28205129;4533.71794935;2041.92307227;-0.00000896;-0.00000896;3485.64102405;4600.25641102;4598.84615461;4302.05128219;4337.56410278;4270.12820520;4205.76923070;4172.30769217
4175.76923063;4201.53846147;4567.17948788;4268.33333341;4431.15384657;2070.64102106;-0.00000896;-0.00000896;3512.94871642;4596.79487256;4371.79487208;4302.17948732;4465.51282100;4271.28205136;4206.15384609;4172.30769217
4173.46153833;4174.74358961;4503.07692364;4270.64102571;4795.64102683;2073.33332875;-0.00000896;-0.00000896;3513.97435745;4566.15384685;4434.23076965;4303.58974373;4567.56410326;4271.15384623;4205.76923070;4172.30769217
4171.92307679;4172.30769217;4498.58974415;4268.97435905;4666.15384706;2072.30768773;-0.00000896;-0.00000896;3518.07692155;4564.87179557;4274.35897443;4305.38461553;4136.92307672;4270.00000007;4206.02564096;4172.30769217
4170.76923063;4170.25641012;4404.10256445;4267.05128212;4635.38461622;2070.89743132;-0.00000896;-0.00000896;3519.87179335;4532.17948781;4466.02564152;4301.92307707;4301.53846168;4270.12820520;4207.05128199;4172.30769217
4169.48717935;4169.10256397;3844.35897353;4237.56410257;4039.74358933;2106.79486728;229.99999153;-0.00000896;3518.33333181;4536.15384678;4142.43589723;4302.94871809;4042.05128164;4269.74358982;4205.64102558;4172.30769217
4172.43589730;4171.53846140;4532.30769294;4234.23076923;4498.33333389;2134.48717504;-0.00000896;-0.00000896;3485.25640866;4563.84615454;4203.07692301;4302.69230784;4496.53846210;4269.87179495;4207.05128199;4172.30769217
4203.07692301;4174.10256397;4069.74358940;4208.97435891;3972.94871740;2102.69230318;-0.00000896;-0.00000896;3485.51281892;4566.15384685;4141.66666646;4305.12820527;4135.51282031;4272.17948725;4205.76923070;4205.12820506
4209.10256404;4174.10256397;4366.79487208;4208.71794865;4038.97435856;2071.15384157;-0.00000896;-0.00000896;3516.66666514;4562.69230839;3875.51281975;4302.56410271;4173.46153833;4268.20512828;4205.89743583;4205.12820506
4236.53846154;4172.05128192;4271.15384623;4235.51282052;4235.51282052;2070.89743132;229.99999153;-0.00000896;3545.38461393;4531.28205191;4466.79487229;4302.05128219;4334.35897457;4270.38461546;4205.89743583;4237.94871795
4238.84615385;4170.76923063;3906.92307623;4234.48717949;4042.69230728;2071.28204670;229.99999153;-0.00000896;3545.25640880;4530.00000063;4074.10256376;4302.30769245;3945.64102502;4269.10256418;4205.64102558;4237.94871795
4238.97435898;4169.87179474;4174.74358961;4234.74358975;4305.12820527;2073.07691849;229.99999153;-0.00000896;3546.15384470;4502.82051338;4272.43589751;4301.92307707;4234.48717949;4270.12820520;4203.33333327;4237.94871795
4239.87179488;4169.23076910;4207.69230763;4235.76923077;4172.94871781;2075.51281593;229.99999153;-0.00000896;3549.61538316;4498.58974415;4038.20512779;4299.61538476;4208.84615378;4271.28205136;4205.64102558;4237.94871795
4238.58974359;4168.58974345;3975.64102509;4237.17948718;3913.58974290;2101.92307241;229.99999153;-0.00000896;3550.25640880;4501.02564159;4336.15384637;4301.02564117;4037.94871754;4268.84615392;4205.51282045;4237.94871795
4237.17948718;4168.58974345;4170.64102551;4237.30769231;4108.20512793;2101.66666215;229.99999153;-0.00000896;3579.10256272;4498.71794928;4234.74358975;4301.92307707;4010.89743541;4269.61538469;4205.25641019;4237.94871795
4233.97435898;4168.46153833;3945.89743528;4238.58974359;3847.94871712;2074.74358516;229.99999153;-0.00000896;3578.46153708;4470.64102613;4042.17948677;4303.07692322;3879.35897360;4269.61538469;4205.51282045;4237.94871795
4208.46153840;4168.97435884;4175.89743576;4237.30769231;4240.51282052;2102.82050831;229.99999153;-0.00000896;3577.69230631;4466.41025690;4104.61538434;4302.82051296;4204.74358968;4269.35897443;4205.64102558;4205.12820506
4207.69230763;4170.25641012;4137.94871774;4236.41025641;4102.56410229;2102.94871344;229.99999153;-0.00000896;3548.71794726;4435.38461581;4268.58974366;4300.00000014;4009.35897388;4271.28205136;4204.48717942;4205.12820506
4207.69230763;4171.15384602;3973.20512765;4237.17948718;4043.07692266;2073.97435439;229.99999153;-0.00000896;3550.12820367;4434.10256452;4267.94871802;4301.15384630;4039.99999959;4270.89743597;4205.12820506;4205.12820506
4208.07692301;4169.74358961;4266.92307700;4235.12820513;4105.76923050;2072.56409798;229.99999153;-0.00000896;3582.94871656;4435.12820555;3971.92307637;4303.07692322;4175.38461525;4270.00000007;4203.71794865;4205.12820506
4208.07692301;4168.58974345;4008.07692259;4208.84615378;4008.20512772;2073.84614926;229.99999153;-0.00000896;3611.28204997;4431.79487222;4140.38461518;4303.46153860;4009.23076875;4269.48717956;4205.25641019;4205.12820506
4208.84615378;4142.17948697;4136.41025621;4204.99999993;4139.74358954;2073.71794414;229.99999153;-0.00000896;3612.30769099;4404.61538497;4236.66666667;4306.15384630;4108.97435870;4271.02564110;4204.61538455;4205.12820506
4209.10256404;4140.76923056;4436.15384657;4205.12820506;4006.02564054;2069.23076465;229.99999153;-0.00000896;3614.87179356;4398.46153881;4069.99999966;4304.23076937;4366.02564131;4270.00000007;4204.61538455;4205.12820506
4235.38461539;4139.10256390;4135.51282031;4206.66666660;4173.46153833;2072.82050824;229.99999153;-0.00000896;3643.71794747;4401.15384651;3912.69230700;4302.56410271;4174.48717935;4269.48717956;4204.61538455;4237.94871795
4235.76923077;4139.23076903;4562.69230839;4207.94871788;4564.10256480;2105.12820062;229.99999153;-0.00000896;3614.74358843;4401.28205163;4563.33333403;4303.33333348;4634.10256494;4271.28205136;4204.48717942;4237.94871795
4236.28205129;4140.25641005;4500.89743646;4204.87179481;4760.64102676;2071.41025183;229.99999153;-0.00000896;3617.43589612;4401.28205163;4595.38461615;4303.84615399;4794.10256529;4268.97435905;4204.48717942;4237.94871795
4236.28205129;4140.64102544;4630.38461622;4205.64102558;4567.43589813;2071.53845696;229.99999153;-0.00000896;3613.33333202;4403.46153881;4697.17948816;4302.69230784;4761.79487291;4270.64102571;4204.61538455;4237.94871795
4237.56410257;4141.92307672;4267.94871802;4206.15384609;4468.84615434;2101.15384164;229.99999153;-0.00000896;3581.02563964;4430.76923119;4661.79487270;4304.74358989;4335.51282073;4269.87179495;4204.48717942;4237.94871795
4238.46153847;4170.89743576;4304.23076937;4234.61538462;4831.53846279;2103.46153395;229.99999153;-0.00000896;3551.66666521;4402.69230804;4137.82051262;4302.43589758;4568.84615454;4270.76923084;4203.97435891;4237.94871795
4241.15384616;4172.30769217;4569.87179557;4237.17948718;4600.89743667;2106.15384164;229.99999153;-0.00000896;3547.56410111;4400.38461574;4662.82051373;4305.89743604;4635.51282135;4269.74358982;4204.35897429;4237.94871795
4240.89743590;4175.12820499;4467.94871844;4237.69230770;4732.69230874;2106.02563651;229.99999153;-0.00000896;3583.33333195;4371.28205156;4369.48717977;4302.30769245;4370.25641054;4271.28205136;4204.23076917;4237.94871795
4235.38461539;4202.94871788;4405.38461574;4237.30769231;4369.87179515;2106.53845703;229.99999153;-0.00000896;3645.38461414;4368.97435926;4667.56410347;4301.92307707;4529.35897499;4271.02564110;4204.48717942;4237.94871795
4202.30769224;4205.51282045;4273.71794879;4236.41025641;4533.84615448;2104.61538010;229.99999153;-0.00000896;3646.79487055;4403.71794907;4402.30769266;4303.46153860;4235.00000000;4269.48717956;4206.53846147;4205.12820506
4170.64102551;4206.92307686;4267.56410264;4238.33333334;4271.02564110;2108.33332882;229.99999153;-0.00000896;3616.79487048;4435.00000042;4073.46153812;4301.02564117;4365.76923105;4271.41025648;4204.35897429;4172.30769217
4140.64102544;4234.48717949;4305.89743604;4267.17948725;4535.64102627;2136.15384171;229.99999153;-0.00000896;3548.84615239;4500.25641082;4168.84615371;4302.30769245;4175.76923063;4271.41025648;4204.74358968;4139.48717928
4139.61538441;4236.28205129;4694.87179585;4241.92307693;4794.35897554;2105.76922626;229.99999153;-0.00000896;3481.79487020;4530.25641089;4534.23076986;4303.84615399;4433.33333375;4271.02564110;4205.89743583;4139.48717928
4142.56410236;4235.25641026;4239.23076923;4236.15384616;4628.71794956;2105.76922626;229.99999153;-0.00000896;3446.79487013;4535.25641089;4008.58974311;4305.76923091;4400.38461574;4270.51282059;4204.48717942;4139.48717928
4173.46153833;4207.94871788;4398.07692343;4206.41025634;4138.20512800;2105.64102113;229.99999153;-0.00000896;3447.05128039;4563.97435967;4761.28205240;4302.69230784;4469.35897485;4270.51282059;4201.79487173;4172.30769217
4203.20512814;4206.79487173;4141.02564082;4174.10256397;4434.35897478;2104.10255959;229.99999153;-0.00000896;3479.35897276;4537.05128268;4234.61538462;4303.71794886;4405.89743625;4271.28205136;4204.48717942;4204.99999993
4205.25641019;4204.61538455;4303.97435912;4173.20512807;4406.02564138;2103.20512369;229.99999153;-0.00000896;3486.66666507;4532.82051345;4332.94871816;4303.58974373;4300.64102578;4268.84615392;4204.74358968;4204.99999993
4207.17948711;4202.05128199;4464.48717998;4172.94871781;4502.17948774;2075.76922619;229.99999153;-0.00000896;3549.23076778;4530.89743653;4365.25641054;4274.61538469;4530.89743653;4270.51282059;4204.23076917;4204.99999993
4205.38461532;4175.76923063;4598.58974436;4170.64102551;4730.38461643;2039.74358509;229.99999153;-0.00000896;3583.07692169;4530.00000063;4466.02564152;4303.97435912;4240.00000000;4270.64102571;4205.12820506;4204.99999993
4201.53846147;4173.20512807;4365.64102592;4169.74358961;4334.87179508;2074.61538003;-0.00000896;-0.00000896;3579.74358836;4531.53846217;4663.97435988;4305.38461553;4466.28205177;4267.69230777;4204.61538455;4204.99999993
4201.15384609;4172.69230756;4339.87179508;4140.76923056;4271.53846161;2069.23076465;6.53845258;-0.00000896;3552.69230624;4529.23076986;4234.48717949;4304.35897450;4303.71794886;4269.10256418;4204.23076917;4204.99999993
4202.69230763;4173.46153833;4238.46153847;4140.64102544;4727.82051387;2073.71794414;229.99999153;-0.00000896;3551.41025495;4498.33333389;4565.12820583;4302.17948732;4336.92307714;4269.35897443;4204.74358968;4204.99999993
4204.99999993;4175.25641012;4595.51282128;4140.25641005;4532.69230832;2074.48717490;6.53845258;-0.00000896;3579.87179349;4498.33333389;4170.89743576;4301.41025655;4432.82051324;4270.00000007;4204.74358968;4204.99999993
4233.84615385;4176.02564089;4237.56410257;4142.69230749;4465.76923126;2073.46153388;-0.00000896;-0.00000896;3580.89743451;4497.69230825;4139.10256390;4302.30769245;4406.02564138;4270.76923084;4204.61538455;4237.82051282
4237.30769231;4203.46153840;4437.69230811;4171.28205115;4601.53846231;2068.84614926;-0.00000896;-0.00000896;3610.25640894;4498.71794928;4403.20512856;4301.92307707;4107.43589716;4270.00000007;4204.35897429;4237.82051282
4241.41025641;4203.46153840;4302.56410271;4175.64102551;4662.69230860;2042.30768766;-0.00000896;-0.00000896;3584.99999861;4498.58974415;4304.48717963;4302.82051296;4368.33333362;4268.33333341;4204.10256404;4237.82051282
4268.58974366;4204.35897429;4632.05128289;4175.51282038;4632.69230853;1975.64102085;-0.00000896;-0.00000896;3644.35897311;4503.58974415;4368.46153874;4304.87179501;4599.61538538;4268.33333341;4204.23076917;4270.64102571
4268.97435905;4201.28205122;4564.10256480;4203.33333327;4761.79487291;1972.05127726;-0.00000896;-0.00000896;3644.61538337;4503.07692364;4498.97435953;4303.84615399;4239.48717949;4269.87179495;4205.51282045;4270.76923084
4271.66666674;4176.02564089;4400.12820548;4206.02564096;4435.89743632;1977.30768752;-0.00000896;-0.00000896;3615.25640894;4530.76923140;4470.12820562;4304.35897450;4503.58974415;4268.97435905;4204.35897429;4270.76923084
4273.20512828;4174.99999986;4137.30769210;4208.07692301;4531.66666730;2007.69230297;-0.00000896;-0.00000896;3584.10256272;4501.79487235;4305.76923091;4304.87179501;4104.61538434;4269.10256418;4202.43589737;4270.76923084
4303.07692322;4175.12820499;4798.71794990;4234.23076923;4500.12820569;2041.15384150;-0.00000896;-0.00000896;3582.17948579;4500.38461594;4400.89743625;4300.89743604;4500.25641082;4267.56410264;4204.35897429;4303.58974373
4305.25641040;4175.25641012;4305.51282066;4234.74358975;4566.92307762;2037.94871330;-0.00000896;-0.00000896;3649.35897311;4468.07692357;4468.97435946;4303.58974373;4630.12820597;4270.25641033;4204.61538455;4303.58974373
4305.64102578;4173.84615371;4597.05128282;4234.87179488;4566.79487249;2074.48717490;-0.00000896;-0.00000896;3651.02563978;4437.82051324;4271.15384623;4302.82051296;4501.66666723;4272.30769238;4204.35897429;4303.58974373
4305.12820527;4173.97435884;4138.58974339;4207.17948711;4336.02564124;2101.92307241;-0.00000896;-0.00000896;3678.07692190;4437.30769273;4500.25641082;4302.56410271;4271.02564110;4268.71794879;4204.10256404;4303.58974373
4304.87179501;4176.15384602;4104.87179460;4202.17948711;4365.51282079;2167.17948281;-0.00000896;-0.00000896;3617.43589612;4466.92307741;4271.41025648;4302.43589758;4332.82051303;4271.15384623;4205.89743583;4303.58974373
4307.56410271;4205.76923070;4304.61538476;4175.38461525;4599.48718026;2167.94871357;-0.00000896;-0.00000896;3610.64102432;4463.84615434;4470.64102613;4302.30769245;4402.56410292;4268.58974366;4204.23076917;4303.46153860
4333.71794893;4236.02564103;4371.92307720;4201.53846147;4370.38461567;2101.66666215;-0.00000896;-0.00000896;3616.66666535;4438.33333375;4565.76923147;4303.20512835;4269.74358982;4268.07692315;4203.84615378;4336.41025662
4335.64102585;4236.15384616;4727.30769335;4204.23076917;4568.71794942;2101.92307241;-0.00000896;-0.00000896;3615.25640894;4463.58974408;4432.30769273;4304.35897450;4763.20512932;4273.07692315;4204.10256404;4336.41025662
4334.74358996;4235.76923077;4337.17948739;4208.97435891;4761.79487291;2102.30768779;-0.00000896;-0.00000896;3611.92307561;4438.07692350;4304.35897450;4303.07692322;3943.20512758;4268.46153853;4203.20512814;4336.41025662
4334.23076944;4234.87179488;4405.89743625;4236.28205129;4859.48718081;2104.74358523;-0.00000896;-0.00000896;3585.38461400;4436.53846196;4405.12820548;4304.23076937;4468.97435946;4269.48717956;4204.48717942;4336.41025662
4334.10256431;4208.07692301;4500.38461594;4238.46153847;4536.41025704;2136.79486735;-0.00000896;-0.00000896;3579.10256272;4431.92307734;4336.66666688;4305.25641040;4635.38461622;4270.51282059;4204.74358968;4336.41025662
4334.48717970;4207.69230763;4333.33333355;4238.71794872;4858.58974491;2138.07691863;-0.00000896;-0.00000896;3550.64102419;4400.89743625;4666.79487270;4303.97435912;4535.25641089;4270.25641033;4203.71794865;4336.41025662
4307.17948732;4205.25641019;4470.64102613;4233.84615385;4498.58974415;2102.82050831;-0.00000896;-0.00000896;3582.17948579;4398.84615420;4727.30769335;4303.84615399;4696.02564200;4269.87179495;4203.33333327;4303.58974373
4302.30769245;4176.28205115;4432.05128247;4204.35897429;4335.76923098;2041.41025176;-0.00000896;-0.00000896;3644.74358850;4366.28205156;4793.46153965;4303.97435912;4369.10256438;4269.48717956;4203.33333327;4303.58974373
4271.41025648;4172.56410243;4367.43589772;4172.82051269;4467.30769280;2069.61538003;-0.00000896;-0.00000896;3617.17948586;4366.15384644;4240.12820513;4304.74358989;4398.33333368;4268.84615392;4203.97435891;4270.64102571
4240.12820513;4170.64102551;4399.74359009;4170.76923063;4765.76923188;2009.10255938;-0.00000896;-0.00000896;3646.79487055;4338.71794893;4728.46153951;4302.82051296;4237.82051282;4271.15384623;4205.51282045;4237.82051282
4234.61538462;4168.20512807;4532.30769294;4171.53846140;4629.10256494;2009.23076451;-0.00000896;-0.00000896;3647.30769106;4333.97435919;4071.15384581;4304.35897450;4300.00000014;4268.97435905;4203.97435891;4237.82051282
4206.15384609;4140.51282031;4398.97435933;4173.20512807;4469.74359023;2068.84614926;229.99999153;-0.00000896;3616.15384484;4305.76923091;4501.15384671;4302.05128219;4397.94871830;4268.84615392;4205.25641019;4204.99999993
4205.64102558;4142.82051262;4436.79487222;4174.48717935;4696.41025739;2133.46153402;229.99999153;-0.00000896;3551.15384470;4334.35897457;4300.51282066;4303.20512835;4137.43589723;4269.10256418;4203.58974352;4204.99999993
4208.97435891;4171.53846140;4272.94871802;4203.07692301;4564.10256480;2074.61538003;229.99999153;-0.00000896;3548.33333188;4332.82051303;4435.51282093;4301.53846168;4299.61538476;4268.58974366;4203.46153840;4205.12820506
4237.82051282;4201.15384609;4501.28205184;4207.56410250;4562.56410326;2004.87179015;229.99999153;-0.00000896;3580.12820374;4303.20512835;4172.30769217;4304.10256425;4533.33333396;4269.48717956;4203.71794865;4237.94871795
4235.38461539;4174.23076910;4168.97435884;4238.20512821;4662.05128296;1938.97435411;0.51281155;-0.00000896;3616.66666535;4273.84615392;4662.56410347;4303.71794886;4372.05128233;4268.84615392;4201.28205122;4237.94871795
4205.64102558;4171.41025628;4562.05128275;4235.51282052;4731.02564207;1975.64102085;-0.00000896;-0.00000896;3617.17948586;4299.74358989;4338.33333355;4302.94871809;4531.92307755;4267.69230777;4202.82051275;4205.12820506
4202.17948711;4171.79487166;4306.79487194;4174.48717935;4463.71794921;2007.56409784;229.99999153;-0.00000896;3614.74358843;4333.58974380;4599.10256487;4303.07692322;4463.58974408;4268.58974366;4202.82051275;4204.99999993
4175.89743576;4174.61538448;4204.74358968;4142.82051262;4372.82051310;2005.12820041;-0.00000896;-0.00000896;3646.79487055;4333.20512842;4271.41025648;4302.82051296;4205.89743583;4269.35897443;4202.94871788;4172.17948704
4176.28205115;4176.28205115;4433.97435940;4139.87179467;4529.35897499;2005.12820041;229.99999153;-0.00000896;3648.84615260;4366.79487208;4334.87179508;4304.10256425;4267.82051289;4267.69230777;4203.97435891;4172.17948704
4203.20512814;4202.94871788;4336.15384637;4140.51282031;4241.66666667;1977.17948239;-0.00000896;-0.00000896;3683.33333216;4368.97435926;4104.87179460;4303.71794886;4371.02564131;4267.17948725;4203.58974352;4204.99999993
4205.64102558;4205.25641019;4105.25640998;4169.48717935;4205.89743583;2007.82050810;229.99999153;-0.00000896;3712.05128094;4366.92307720;4369.35897464;4305.00000014;4237.43589744;4268.71794879;4203.46153840;4204.99999993
4208.46153840;4203.58974352;4108.33333306;4173.33333320;4497.82051338;2038.71794407;-0.00000896;-0.00000896;3745.38461435;4365.89743618;4236.15384616;4303.97435912;4307.17948732;4267.82051289;4175.25641012;4204.99999993
4234.35897436;4203.71794865;4273.07692315;4174.99999986;4761.66666778;2069.35896978;229.99999153;-0.00000896;3774.61538365;4403.07692343;4565.76923147;4304.74358989;4270.38461546;4266.66666674;4203.20512814;4237.82051282
4236.41025641;4205.51282045;4466.41025690;4203.58974352;4531.28205191;2074.87179029;-0.00000896;-0.00000896;3748.46153742;4399.87179522;4070.38461504;4303.20512835;4465.38461587;4267.56410264;4203.20512814;4237.94871795
4235.64102564;4206.02564096;4602.56410333;4205.89743583;4595.89743667;2070.64102106;229.99999153;-0.00000896;3776.41025544;4402.30769266;4367.30769259;4305.00000014;4562.30769301;4241.92307693;4203.20512814;4237.94871795
4236.53846154;4206.15384609;4368.46153874;4208.71794865;4727.43589848;2042.56409791;-0.00000896;-0.00000896;3780.51281954;4431.92307734;4236.53846154;4304.61538476;4004.87179439;4269.74358982;4203.33333327;4237.94871795
4235.00000000;4204.99999993;4268.33333341;4237.69230770;4496.53846210;2104.48717497;229.99999153;-0.00000896;3745.38461435;4432.69230811;4368.33333362;4303.97435912;4340.12820534;4267.43589751;4203.58974352;4237.94871795
4236.28205129;4203.97435891;4430.76923119;4239.87179488;4600.51282128;2103.71794421;-0.00000896;-0.00000896;3713.07692197;4431.15384657;4208.07692301;4304.23076937;4502.69230825;4268.07692315;4203.07692301;4237.94871795
4238.71794872;4175.38461525;4041.15384574;4267.05128212;4599.87179564;2101.92307241;229.99999153;-0.00000896;3683.97435780;4434.74359016;4700.76923175;4304.35897450;4239.23076923;4267.43589751;4203.46153840;4237.94871795
4268.58974366;4172.69230756;4563.58974429;4240.38461539;4733.71794976;2108.46153395;-0.00000896;-0.00000896;3683.58974241;4436.15384657;4206.15384609;4305.00000014;4302.05128219;4270.00000007;4203.84615378;4270.76923084
4271.15384623;4170.89743576;4270.25641033;4241.66666667;4694.10256508;2105.89743138;229.99999153;-0.00000896;3712.17948607;4403.97435933;4270.38461546;4303.84615399;4367.94871823;4268.97435905;4203.20512814;4270.76923084
4274.61538469;4142.94871774;4500.51282107;4239.23076923;4464.87179536;2072.43589285;-0.00000896;-0.00000896;3743.97435794;4372.82051310;4239.61538462;4302.30769245;4632.30769315;4267.94871802;4202.94871788;4270.76923084
4273.20512828;4141.66666646;4504.35897492;4237.94871795;4599.23077000;2102.17948267;229.99999153;-0.00000896;3742.17948614;4368.07692336;4599.10256487;4301.66666681;4632.82051366;4241.79487180;4201.79487173;4270.76923084
4272.30769238;4142.69230749;4536.92307755;4208.58974352;4762.69230881;2101.02563651;-0.00000896;-0.00000896;3716.41025530;4368.33333362;4202.56410250;4306.66666681;4501.66666723;4269.10256418;4202.94871788;4270.76923084
4271.15384623;4170.12820499;4237.56410257;4206.66666660;4302.82051296;2074.87179029;229.99999153;-0.00000896;3715.38461428;4338.33333355;4271.15384623;4306.28205142;4204.87179481;4268.33333341;4202.43589737;4270.76923084
4270.89743597;4173.20512807;4403.20512856;4204.74358968;4663.20512911;2042.56409791;-0.00000896;-0.00000896;3744.35897332;4336.15384637;4208.58974352;4302.94871809;4334.74358996;4268.71794879;4202.69230763;4270.76923084
4266.92307700;4176.15384602;4339.35897457;4207.43589737;4662.56410347;2003.97435425;229.99999153;-0.00000896;3747.43589640;4335.51282073;4467.94871844;4305.51282066;4241.92307693;4270.25641033;4202.05128199;4270.76923084
4240.25641026;4201.28205122;4502.30769287;4236.92307693;4534.10256473;1974.99999521;-0.00000896;-0.00000896;3743.97435794;4370.12820541;4104.10256383;4305.38461553;4663.46153937;4269.10256418;4202.82051275;4237.94871795
4239.10256411;4176.15384602;4205.76923070;4266.66666674;4270.12820520;1970.51281572;229.99999153;-0.00000896;3745.25640922;4369.74359003;4370.00000028;4303.46153860;4268.20512828;4269.48717956;4205.64102558;4237.94871795
4237.30769231;4174.99999986;4398.20512856;4269.87179495;4566.41025711;1973.20512341;-0.00000896;-0.00000896;3746.79487076;4366.66666695;4438.71794914;4303.58974373;4204.35897429;4268.58974366;4202.69230763;4237.94871795
4233.97435898;4172.94871781;4372.05128233;4269.61538469;4696.28205226;1941.79486693;229.99999153;-0.00000896;3744.74358871;4366.79487208;4340.00000021;4303.84615399;4340.00000021;4269.23076930;4202.56410250;4237.94871795
4207.56410250;4172.94871781;4401.02564138;4269.61538469;4666.92307783;1973.07691829;-0.00000896;-0.00000896;3711.15384505;4340.00000021;4338.58974380;4305.89743604;4568.33333403;4269.48717956;4202.56410250;4205.12820506
4206.92307686;4174.35897422;4272.56410264;4268.33333341;4596.79487256;1973.84614906;229.99999153;-0.00000896;3682.82051164;4365.38461567;4503.46153902;4303.84615399;4076.92307658;4267.43589751;4202.69230763;4205.12820506
4207.82051275;4175.12820499;4372.56410285;4240.25641026;4693.33333431;1973.58973880;-0.00000896;-0.00000896;3708.84615274;4365.64102592;4073.97435863;4303.84615399;4501.79487235;4268.71794879;4202.82051275;4205.12820506
4235.25641026;4201.41025634;4273.97435905;4236.92307693;4372.94871823;1974.10255931;-0.00000896;-0.00000896;3716.28205017;4368.58974387;4143.33333313;4305.89743604;4205.25641019;4269.61538469;4202.17948711;4237.94871795
4238.07692308;4202.94871788;4239.23076923;4237.17948718;4465.51282100;2007.56409784;-0.00000896;-0.00000896;3711.15384505;4372.30769259;4203.46153840;4306.66666681;4403.20512856;4268.97435905;4202.94871788;4237.94871795
4240.25641026;4203.84615378;4301.02564117;4238.84615385;4662.69230860;2004.35896964;229.99999153;-0.00000896;3712.17948607;4371.79487208;4498.20512876;4304.48717963;4108.97435870;4269.74358982;4202.82051275;4237.94871795
4241.92307693;4202.69230763;4434.48717991;4241.02564103;4667.94871886;2034.87179022;229.99999153;-0.00000896;3743.33333229;4366.15384644;4205.38461532;4303.33333348;4465.76923126;4267.94871802;4203.20512814;4237.94871795
4241.79487180;4204.48717942;4303.97435912;4240.25641026;4306.02564117;2009.74358502;229.99999153;-0.00000896;3742.69230665;4368.84615413;4076.15384581;4305.51282066;4233.84615385;4271.15384623;4202.05128199;4237.94871795
4240.89743590;4203.46153840;4400.00000035;4238.97435898;4367.05128233;2041.41025176;229.99999153;-0.00000896;3777.05128108;4370.38461567;4337.30769252;4303.33333348;4663.20512911;4271.53846161;4202.56410250;4237.94871795
4239.23076923;4202.69230763;4301.41025655;4237.94871795;4531.92307755;2071.92307234;-0.00000896;-0.00000896;3775.64102467;4369.74359003;4470.38461587;4305.12820527;4336.02564124;4271.02564110;4202.82051275;4237.94871795
4236.28205129;4201.92307686;4466.41025690;4237.56410257;4599.10256487;2070.25640567;-0.00000896;-0.00000896;3748.46153742;4369.48717977;4274.74358982;4304.87179501;4206.53846147;4270.25641033;4203.07692301;4237.94871795
4209.10256404;4202.69230763;4731.66666771;4240.76923077;4661.53846245;2100.89743138;-0.00000896;-0.00000896;3744.87179383;4369.48717977;4563.33333403;4304.87179501;4665.12820604;4267.69230777;4202.43589737;4205.12820506
4208.33333327;4202.05128199;4274.74358982;4233.97435898;4629.35897520;2042.56409791;-0.00000896;-0.00000896;3776.15384518;4373.20512849;4108.20512793;4305.51282066;4110.51282024;4271.28205136;4202.69230763;4205.12820506
4204.48717942;4203.07692301;4340.00000021;4241.53846154;4498.46153902;2038.07691843;-0.00000896;-0.00000896;3777.94871698;4400.12820548;4208.84615378;4304.48717963;4269.23076930;4271.02564110;4202.94871788;4205.12820506
4175.76923063;4176.28205115;4399.23076958;4270.00000007;4533.71794935;2040.12820048;-0.00000896;-0.00000896;3846.79487096;4340.38461560;4240.51282052;4305.76923091;4628.58974443;4269.74358982;4201.92307686;4172.30769217
4139.48717928;4172.30769217;4077.69230735;4272.17948725;4301.53846168;2040.12820048;-0.00000896;-0.00000896;3938.46153784;4306.66666681;4531.53846217;4302.30769245;4241.41025641;4270.89743597;4202.56410250;4139.48717928
4072.17948684;4172.69230756;4465.00000049;4273.20512828;4306.28205142;2072.17948260;-0.00000896;-0.00000896;3842.56410173;4301.66666681;4726.15384720;4304.87179501;4464.10256459;4272.30769238;4202.30769224;4073.84615350
4012.05128157;4173.33333320;4137.17948697;4300.51282066;4334.35897457;2074.48717490;-0.00000896;-0.00000896;3711.66666556;4301.66666681;4274.23076930;4303.07692322;4142.56410236;4270.64102571;4202.30769224;4008.20512772
4007.69230721;4202.05128199;4236.92307693;4300.51282066;4498.58974415;2071.02563644;-0.00000896;-0.00000896;3614.74358843;4333.07692329;4274.35897443;4304.10256425;4336.92307714;4270.89743597;4202.43589737;4008.20512772
4008.58974311;4203.84615378;4306.66666681;4299.87179501;4695.64102662;2034.99999535;-0.00000896;-0.00000896;3580.64102426;4339.10256431;4438.33333375;4302.94871809;4172.56410243;4270.25641033;4202.82051275;4008.20512772
4011.66666618;4205.12820506;4466.02564152;4300.12820527;4763.20512932;2036.02563637;-0.00000896;-0.00000896;3549.48717803;4365.25641054;4270.12820520;4304.35897450;4501.92307748;4272.05128212;4202.94871788;4008.20512772
4039.48717907;4206.66666660;4306.41025655;4273.33333341;4500.00000056;2002.05127733;-0.00000896;-0.00000896;3516.41025489;4370.25641054;4142.69230749;4303.71794886;4304.87179501;4269.74358982;4203.07692301;4041.02564061
4042.05128164;4204.23076917;4203.20512814;4274.48717956;4307.05128219;1944.48717463;-0.00000896;-0.00000896;3516.92307540;4371.66666695;4333.71794893;4303.97435912;4367.82051310;4268.84615392;4203.20512814;4041.02564061
4042.43589702;4202.94871788;4267.17948725;4299.87179501;4569.48718019;1975.25640547;-0.00000896;-0.00000896;3512.43589591;4371.92307720;4432.56410298;4304.35897450;4402.17948753;4269.87179495;4203.33333327;4041.02564061
4044.99999959;4201.28205122;4436.79487222;4300.89743604;4700.00000098;2003.71794400;-0.00000896;-0.00000896;3486.41025482;4398.07692343;4334.35897457;4301.92307707;4405.12820548;4269.61538469;4201.53846147;4041.02564061
4072.05128171;4202.05128199;4793.46153965;4301.28205142;4337.69230790;2041.41025176;-0.00000896;-0.00000896;3484.61538302;4432.05128247;4860.64102697;4302.69230784;4760.64102676;4270.12820520;4203.46153840;4073.84615350
4074.74358940;4204.35897429;4367.17948746;4301.79487194;4762.43589855;2103.20512369;-0.00000896;-0.00000896;3484.99999841;4403.07692343;4206.41025634;4305.64102578;4071.79487145;4272.56410264;4203.33333327;4073.84615350
4102.69230742;4205.64102558;4367.43589772;4272.17948725;4498.58974415;2073.58973901;-0.00000896;-0.00000896;3514.87179335;4405.38461574;4105.38461511;4303.84615399;4234.74358975;4270.38461546;4203.46153840;4106.66666639
4103.84615357;4206.15384609;4333.20512842;4267.82051289;4435.00000042;2067.82050824;-0.00000896;-0.00000896;3517.69230617;4438.84615427;4236.53846154;4302.17948732;4504.10256466;4270.25641033;4203.58974352;4106.66666639
4106.02564075;4206.53846147;4207.30769224;4240.38461539;4567.17948788;2072.05127747;-0.00000896;-0.00000896;3518.46153694;4467.94871844;4400.89743625;4302.82051296;4076.28205094;4271.28205136;4203.46153840;4106.66666639
4109.23076896;4204.99999993;4501.92307748;4239.87179488;4332.43589765;2073.46153388;-0.00000896;-0.00000896;3516.53846001;4436.92307734;4699.74359072;4302.69230784;4470.64102613;4270.64102571;4203.58974352;4106.66666639
4136.02564082;4203.58974352;4107.94871767;4240.51282052;4435.51282093;2105.12820062;-0.00000896;-0.00000896;3516.66666514;4438.33333375;4432.05128247;4304.87179501;4140.25641005;4271.02564110;4203.58974352;4139.48717928
4139.87179467;4204.35897429;4401.53846189;4240.00000000;4726.53846258;2105.38461087;-0.00000896;-0.00000896;3519.10256258;4437.30769273;4267.43589751;4300.76923091;4272.30769238;4270.25641033;4203.20512814;4139.48717928
4143.07692287;4204.61538455;4269.87179495;4267.30769238;4369.74359003;2103.71794421;229.99999153;-0.00000896;3519.23076771;4470.76923126;4172.30769217;4304.48717963;4367.94871823;4273.07692315;4203.97435891;4139.48717928
4171.66666653;4204.48717942;4468.33333382;4268.84615392;4727.43589848;2135.38461094;0.12819617;-0.00000896;3518.97435745;4467.69230818;4504.48718005;4304.48717963;4233.97435898;4270.76923084;4204.61538455;4172.30769217
4172.69230756;4204.61538455;4110.51282024;4269.61538469;4370.25641054;2138.71794427;-0.00000896;-0.00000896;3516.28204976;4466.28205177;4365.76923105;4302.94871809;4336.79487201;4269.74358982;4202.43589737;4172.30769217
4201.41025634;4205.51282045;4470.51282100;4270.51282059;4205.51282045;2171.79486742;4.61537566;-0.00000896;3486.66666507;4464.87179536;4271.66666674;4304.48717963;4534.35897499;4269.87179495;4203.58974352;4205.12820506
4204.10256404;4206.41025634;4239.61538462;4268.33333341;4532.69230832;2167.30768793;229.99999153;-0.00000896;3486.66666507;4464.74359023;4305.00000014;4302.56410271;4307.30769245;4270.64102571;4206.66666660;4205.12820506
4205.38461532;4206.92307686;4372.05128233;4240.12820513;4496.79487235;2134.23076479;229.99999153;-0.00000896;3512.69230617;4470.89743639;4170.12820499;4305.00000014;4371.92307720;4270.00000007;4203.84615378;4205.12820506
4206.15384609;4204.99999993;4076.41025607;4238.46153847;4430.76923119;2133.46153402;229.99999153;-0.00000896;3486.41025482;4466.66666716;4272.30769238;4301.92307707;4140.51282031;4270.64102571;4207.05128199;4205.12820506
4208.07692301;4205.89743583;4302.43589758;4236.15384616;4831.92307818;2167.05127768;229.99999153;-0.00000896;3481.02563943;4465.64102613;4335.89743611;4300.89743604;4433.84615427;4269.48717956;4203.58974352;4205.12820506
4236.41025641;4206.15384609;4533.58974422;4233.84615385;4629.10256494;2104.23076472;229.99999153;-0.00000896;3482.94871635;4435.51282093;4760.76923188;4302.17948732;4668.33333424;4273.46153853;4203.97435891;4237.94871795
4237.94871795;4204.23076917;5021.92307859;4207.94871788;5024.87179654;2069.61538003;229.99999153;-0.00000896;3485.64102405;4434.48717991;4957.94871948;4303.71794886;4989.61538622;4272.94871802;4204.10256404;4237.94871795
4241.53846154;4175.64102551;4004.10256362;4207.56410250;3909.87179418;2039.61537996;229.99999153;-0.00000896;3514.35897283;4401.66666702;4139.35897415;4302.17948732;3942.82051220;4270.00000007;4203.97435891;4237.94871795
4267.56410264;4171.41025628;4108.71794844;4208.58974352;3943.20512758;2070.12820055;229.99999153;-0.00000896;3512.43589591;4369.61538490;3976.15384560;4301.53846168;3873.07692232;4272.56410264;4203.97435891;4270.76923084
4269.35897443;4169.87179474;4040.64102523;4208.97435891;4040.38461497;2072.94871337;229.99999153;-0.00000896;3483.58974200;4366.53846182;4339.61538483;4304.10256425;4237.69230770;4270.00000007;4203.71794865;4270.76923084
4272.17948725;4169.61538448;4104.10256383;4237.30769231;4006.66666618;2072.17948260;229.99999153;-0.00000896;3483.20512661;4338.71794893;3845.25640943;4302.43589758;3978.71794817;4271.79487187;4202.94871788;4270.76923084
4274.35897443;4168.46153833;4071.79487145;4238.71794872;4142.82051262;2100.76922626;229.99999153;-0.00000896;3483.58974200;4336.28205149;4334.87179508;4303.07692322;4108.58974332;4269.48717956;4203.33333327;4270.76923084
4302.30769245;4170.51282038;4336.28205149;4239.87179488;4071.79487145;2100.64102113;229.99999153;-0.00000896;3479.10256251;4338.71794893;4268.07692315;4301.15384630;4037.17948677;4269.87179495;4203.58974352;4303.58974373
4305.25641040;4171.79487166;4007.30769183;4239.74358975;3843.46153763;2073.46153388;229.99999153;-0.00000896;3450.64102398;4340.00000021;4042.43589702;4301.02564117;4466.79487229;4272.69230777;4203.33333327;4303.58974373
4333.07692329;4174.48717935;3912.05128136;4239.74358975;3974.74358919;2071.66666208;229.99999153;-0.00000896;3453.46153680;4340.00000021;3939.35897374;4302.82051296;3843.07692225;4272.05128212;4204.23076917;4336.41025662
4334.61538483;4203.33333327;3908.71794803;4236.15384616;4010.76923029;2068.46153388;229.99999153;-0.00000896;3479.23076764;4366.79487208;4302.30769245;4304.48717963;4203.84615378;4273.07692315;4202.94871788;4336.41025662
4335.00000021;4204.61538455;4137.43589723;4234.87179488;4174.10256397;2042.69230304;229.99999153;-0.00000896;3479.87179328;4368.58974387;4076.53846119;4302.05128219;4237.43589744;4272.17948725;4203.20512814;4336.41025662
4337.69230790;4203.07692301;3941.28205066;4207.17948711;3974.74358919;2036.15384150;229.99999153;-0.00000896;3486.15384456;4368.46153874;4236.41025641;4303.58974373;4074.61538427;4271.41025648;4202.82051275;4336.41025662
4337.94871816;4202.43589737;4504.10256466;4206.79487173;4334.48717970;2034.87179022;229.99999153;-0.00000896;3516.02563950;4367.82051310;3945.38461476;4303.46153860;4172.69230756;4271.79487187;4202.56410250;4336.41025662
4337.82051303;4202.56410250;3678.33333216;4207.17948711;3877.56410180;2070.25640567;229.99999153;-0.00000896;3519.10256258;4369.74359003;4237.82051282;4302.82051296;3815.25640936;4272.05128212;4203.33333327;4336.41025662
4336.28205149;4203.71794865;4142.17948697;4205.51282045;4174.99999986;2067.94871337;229.99999153;-0.00000896;3551.53846008;4367.82051310;4168.33333320;4302.05128219;4107.69230742;4273.58974366;4203.20512814;4336.41025662
4334.61538483;4203.33333327;4012.17948670;4205.38461532;4041.53846113;2039.35896971;229.99999153;-0.00000896;3577.82051143;4366.28205156;4235.76923077;4304.23076937;4106.66666639;4272.69230777;4202.17948711;4336.41025662
4307.43589758;4202.82051275;4237.05128206;4204.87179481;4269.23076930;2042.30768766;229.99999153;-0.00000896;3581.15384477;4368.71794900;3979.23076868;4301.28205142;3939.87179425;4271.02564110;4202.30769224;4303.58974373
4304.23076937;4176.28205115;3874.48717873;4203.20512814;3942.69230707;2072.43589285;229.99999153;-0.00000896;3581.28204990;4338.71794893;4103.07692280;4303.71794886;4070.76923043;4271.02564110;4201.53846147;4303.58974373
4303.20512835;4201.02564096;4270.64102571;4201.79487173;4169.74358961;2101.41025190;229.99999153;-0.00000896;3583.46153708;4338.58974380;4204.87179481;4302.69230784;4367.30769259;4273.33333341;4202.30769224;4303.58974373
4301.02564117;4201.28205122;4043.97435856;4203.97435891;4169.87179474;2072.17948260;229.99999153;-0.00000896;3614.87179356;4338.71794893;4436.02564145;4302.17948732;4400.25641061;4272.17948725;4202.56410250;4303.58974373
4300.38461553;4201.28205122;4400.64102599;4204.10256404;4004.87179439;2072.82050824;229.99999153;-0.00000896;3617.05128073;4336.28205149;4072.30769196;4305.12820527;3939.99999938;4271.66666674;4202.69230763;4303.58974373
4273.33333341;4174.87179474;4007.69230721;4207.82051275;4110.38461511;2074.99999542;229.99999153;-0.00000896;3616.92307561;4337.30769252;3813.20512731;4304.35897450;4170.64102551;4271.02564110;4202.17948711;4270.76923084
4271.79487187;4175.89743576;4009.99999952;4208.84615378;4074.74358940;2102.30768779;229.99999153;-0.00000896;3613.58974227;4339.23076944;4268.97435905;4301.66666681;3909.23076854;4271.28205136;4202.30769224;4270.76923084
4271.53846161;4201.15384609;4136.41025621;4208.58974352;4137.82051262;2101.92307241;229.99999153;-0.00000896;3612.56410125;4335.00000021;4235.00000000;4300.00000014;4170.51282038;4270.76923084;4203.97435891;4270.76923084
4269.48717956;4201.79487173;4332.56410278;4208.97435891;4008.84615336;2104.35896985;229.99999153;-0.00000896;3583.07692169;4334.74358996;4137.05128185;4302.30769245;3974.23076868;4272.82051289;4202.17948711;4270.76923084
4270.76923084;4202.43589737;4076.53846119;4207.94871788;4041.92307651;2071.53845696;229.99999153;-0.00000896;3582.56410118;4337.94871816;4430.76923119;4303.84615399;4504.10256466;4273.07692315;4203.20512814;4270.76923084
4270.76923084;4201.15384609;4076.79487145;4234.48717949;4204.74358968;2069.99999542;229.99999153;-0.00000896;3583.33333195;4335.12820534;4108.58974332;4304.48717963;3943.71794810;4272.82051289;4202.17948711;4270.76923084
4271.28205136;4176.02564089;3945.25640963;4208.97435891;4138.97435877;2070.12820055;229.99999153;-0.00000896;3585.12820374;4307.05128219;4171.02564089;4303.71794886;3974.87179432;4274.61538469;4202.30769224;4270.76923084
4270.38461546;4175.76923063;4142.17948697;4234.61538462;4236.02564103;2071.28204670;1.02563207;-0.00000896;3582.30769092;4306.28205142;4139.35897415;4302.94871809;4138.33333313;4271.28205136;4202.30769224;4270.76923084
4270.51282059;4175.64102551;4109.61538434;4235.51282052;4174.99999986;2068.46153388;-0.00000896;-0.00000896;3580.76922938;4307.05128219;4366.15384644;4303.07692322;4073.07692273;4272.43589751;4202.17948711;4270.76923084
4272.43589751;4175.25641012;4170.51282038;4237.30769231;4041.15384574;2074.61538003;229.99999153;-0.00000896;3581.15384477;4304.10256425;4207.30769224;4302.17948732;4010.12820465;4272.17948725;4201.79487173;4270.76923084
4271.41025648;4176.28205115;4304.10256425;4236.15384616;4142.30769210;2073.84614926;-0.00000896;-0.00000896;3581.28204990;4304.10256425;3975.25640970;4302.69230784;4398.84615420;4270.76923084;4201.66666660;4270.76923084
4272.05128212;4203.46153840;4140.51282031;4236.41025641;4010.38461490;2075.38461080;-0.00000896;-0.00000896;3583.97435759;4305.00000014;4007.69230721;4303.46153860;4005.64102516;4272.56410264;4201.53846147;4270.76923084
4271.28205136;4204.23076917;4108.84615357;4207.82051275;4103.07692280;2075.12820055;-0.00000896;-0.00000896;3584.74358836;4304.74358989;4205.64102558;4304.10256425;4109.99999973;4272.82051289;4201.92307686;4270.76923084
4269.10256418;4205.76923070;4465.64102613;4208.07692301;4107.30769203;2042.43589278;-0.00000896;-0.00000896;3582.69230631;4303.84615399;4006.15384567;4302.82051296;4038.97435856;4271.79487187;4202.56410250;4270.76923084
4241.41025641;4205.51282045;3940.25640963;4207.30769224;4141.66666646;2009.48717477;-0.00000896;-0.00000896;3585.51281913;4334.35897457;4467.82051331;4301.79487194;4333.71794893;4272.56410264;4201.66666660;4237.94871795
4240.00000000;4204.99999993;4239.74358975;4206.53846147;4137.17948697;2069.61538003;-0.00000896;-0.00000896;3581.28204990;4307.17948732;4106.92307665;4304.61538476;3972.56410201;4273.07692315;4203.33333327;4237.94871795
4238.58974359;4207.17948711;3780.51281954;4207.94871788;3940.76923015;2073.33332875;-0.00000896;-0.00000896;3578.58974220;4304.10256425;4201.28205122;4304.74358989;3971.53846099;4271.92307700;4201.66666660;4237.94871795
4239.10256411;4207.17948711;4140.64102544;4205.76923070;4204.74358968;2041.53845689;-0.00000896;-0.00000896;3579.48717810;4333.84615406;4104.35897408;4305.00000014;4110.38461511;4272.94871802;4201.53846147;4237.94871795
4239.61538462;4206.79487173;4168.33333320;4207.56410250;4237.69230770;2036.02563637;-0.00000896;-0.00000896;3583.07692169;4335.38461560;4041.02564061;4300.89743604;4007.82051234;4272.69230777;4203.46153840;4237.94871795
4239.74358975;4206.41025634;4201.92307686;4208.58974352;4009.48717900;2039.74358509;-0.00000896;-0.00000896;3610.25640894;4338.58974380;4466.41025690;4303.71794886;4367.43589772;4270.64102571;4201.79487173;4237.94871795
4240.25641026;4205.51282045;4273.20512828;4234.10256411;4172.56410243;2042.69230304;-0.00000896;-0.00000896;3612.43589612;4335.89743611;4301.53846168;4303.33333348;4208.20512814;4272.43589751;4176.15384602;4237.94871795
4239.23076923;4206.92307686;4103.46153819;4233.97435898;4238.97435898;2042.43589278;-0.00000896;-0.00000896;3584.87179349;4335.64102585;4176.28205115;4302.82051296;4173.97435884;4272.43589751;4201.92307686;4237.94871795
4239.10256411;4205.25641019;4108.07692280;4235.25641026;4070.51282017;2068.20512362;-0.00000896;-0.00000896;3584.35897297;4305.00000014;4470.38461587;4301.92307707;4169.74358961;4272.69230777;4202.17948711;4237.94871795
4240.12820513;4205.38461532;4008.46153798;4233.97435898;4039.61538420;2042.05127740;-0.00000896;-0.00000896;3581.66666528;4306.53846168;4007.05128157;4304.48717963;4004.99999952;4272.69230777;4202.17948711;4237.94871795
4241.53846154;4205.25641019;4040.12820472;4233.84615385;4009.61538413;2068.20512362;-0.00000896;-0.00000896;3582.17948579;4333.33333355;4143.20512800;4301.79487194;4205.64102558;4273.07692315;4176.02564089;4237.94871795
4241.02564103;4205.89743583;4005.89743541;4208.84615378;4009.23076875;2070.64102106;-0.00000896;-0.00000896;3583.07692169;4335.89743611;3944.74358912;4301.15384630;3979.23076868;4271.92307700;4201.66666660;4237.94871795
4241.15384616;4206.92307686;4040.25640984;4208.71794865;4037.30769189;2067.94871337;-0.00000896;-0.00000896;3578.97435759;4333.71794893;4335.12820534;4302.56410271;4270.12820520;4270.64102571;4201.66666660;4237.94871795
4266.66666674;4207.30769224;4371.15384644;4208.84615378;4464.10256459;2105.25640574;-0.00000896;-0.00000896;3578.46153708;4333.58974380;4568.97435967;4303.20512835;4142.30769210;4272.17948725;4201.92307686;4270.76923084
4266.92307700;4233.97435898;3974.87179432;4208.20512814;4037.56410215;2073.07691849;-0.00000896;-0.00000896;3582.43589605;4337.56410278;4241.15384616;4301.41025655;4173.20512807;4271.15384623;4175.51282038;4270.76923084
4241.15384616;4209.10256404;3942.94871733;4208.46153840;4201.41025634;2073.84614926;-0.00000896;-0.00000896;3611.15384484;4333.33333355;4008.97435849;4303.84615399;3913.20512751;4270.12820520;4202.69230763;4237.94871795
4266.79487187;4209.10256404;4039.48717907;4207.56410250;4008.46153798;2072.30768773;-0.00000896;-0.00000896;3611.15384484;4333.33333355;4204.23076917;4303.71794886;4141.41025621;4270.89743597;4202.17948711;4270.76923084
4240.89743590;4234.23076923;4138.07692287;4206.53846147;4136.79487159;2071.15384157;-0.00000896;-0.00000896;3610.76922945;4335.25641047;4104.61538434;4302.94871809;4270.64102571;4271.53846161;4176.28205115;4237.94871795
4240.12820513;4208.84615378;3942.94871733;4206.92307686;4011.02564054;2070.25640567;-0.00000896;-0.00000896;3585.12820374;4339.74358996;4270.00000007;4302.56410271;4169.61538448;4271.92307700;4201.79487173;4237.94871795
4239.48717949;4208.71794865;4598.84615461;4208.33333327;4270.38461546;2070.38461080;-0.00000896;-0.00000896;3583.84615246;4366.66666695;3873.07692232;4300.12820527;4234.35897436;4272.43589751;4202.56410250;4237.94871795
4240.12820513;4207.82051275;3782.30769134;4205.51282045;3939.74358912;2072.69230311;-0.00000896;-0.00000896;3583.84615246;4368.58974387;4170.89743576;4302.56410271;3679.74358857;4272.30769238;4202.05128199;4237.94871795
4239.61538462;4208.97435891;4201.15384609;4206.28205122;4169.48717935;2072.69230311;229.99999153;-0.00000896;3583.58974220;4338.58974380;4076.41025607;4303.20512835;4076.28205094;4271.53846161;4169.35897422;4237.94871795
4239.61538462;4209.10256404;4004.48717900;4206.02564096;4104.61538434;2067.94871337;229.99999153;-0.00000896;3612.17948586;4366.66666695;4369.35897464;4302.94871809;4143.33333313;4272.82051289;4202.05128199;4237.94871795
4239.35897436;4206.79487173;4500.12820569;4205.76923070;4106.79487152;2039.74358509;229.99999153;-0.00000896;3611.02563971;4369.48717977;4072.30769196;4302.94871809;3945.89743528;4271.02564110;4202.05128199;4237.94871795
4238.71794872;4205.51282045;3880.38461462;4208.58974352;3911.92307623;2037.56409791;229.99999153;-0.00000896;3612.05128073;4366.92307720;4137.43589723;4302.17948732;4400.89743625;4272.30769238;4202.43589737;4237.94871795
4238.46153847;4203.33333327;4176.02564089;4207.56410250;3913.46153777;2069.87179029;-0.00000896;-0.00000896;3611.41025509;4370.51282079;3807.30769141;4301.79487194;4141.41025621;4272.69230777;4202.17948711;4237.94871795
4239.48717949;4203.07692301;3907.56410187;4207.43589737;4044.74358933;2069.87179029;-0.00000896;-0.00000896;3615.25640894;4338.58974380;4170.38461525;4301.28205142;4137.56410236;4272.94871802;4203.20512814;4237.94871795
4238.33333334;4202.56410250;4139.48717928;4206.79487173;4102.69230742;2069.87179029;229.99999153;-0.00000896;3647.56410132;4369.74359003;4075.51282017;4302.05128219;4238.46153847;4271.79487187;4202.05128199;4237.94871795
4237.30769231;4202.56410250;4074.23076889;4205.38461532;4108.97435870;2040.38461073;-0.00000896;-0.00000896;3648.71794747;4368.07692336;4141.53846133;4303.71794886;4176.28205115;4271.53846161;4202.30769224;4237.94871795
4234.48717949;4201.53846147;4301.66666681;4205.25641019;4070.25640991;2041.41025176;229.99999153;-0.00000896;3647.69230645;4334.23076944;4072.56410222;4303.20512835;4008.71794824;4272.43589751;4201.92307686;4237.94871795
4208.58974352;4174.87179474;4073.97435863;4206.02564096;4106.15384588;2042.82050817;-0.00000896;-0.00000896;3618.20512689;4336.53846175;4335.25641047;4303.07692322;4369.10256438;4273.33333341;4202.56410250;4205.12820506
4207.56410250;4174.99999986;4532.05128268;4206.02564096;4569.87179557;2069.74358516;229.99999153;-0.00000896;3615.76922945;4336.79487201;4336.15384637;4303.71794886;4174.74358961;4272.30769238;4201.66666660;4205.12820506
4207.30769224;4175.51282038;4306.66666681;4207.82051275;4405.25641061;2069.23076465;-0.00000896;-0.00000896;3614.87179356;4334.48717970;4502.30769287;4303.84615399;4170.76923063;4271.02564110;4202.56410250;4205.12820506
4207.56410250;4175.12820499;4431.92307734;4207.82051275;4368.58974387;2069.35896978;229.99999153;-0.00000896;3613.07692176;4332.69230790;3941.79487117;4301.92307707;4142.56410236;4269.61538469;4202.30769224;4205.12820506
4207.82051275;4201.28205122;4009.23076875;4208.33333327;4075.25640991;2068.58973901;-0.00000896;-0.00000896;3610.76922945;4337.56410278;4370.12820541;4304.10256425;4400.38461574;4270.76923084;4204.23076917;4205.12820506
4208.20512814;4202.43589737;4365.12820541;4234.10256411;4499.74359030;2042.94871330;229.99999153;-0.00000896;3610.64102432;4338.07692329;4267.30769238;4302.82051296;4140.51282031;4272.82051289;4201.92307686;4205.12820506
4207.82051275;4202.30769224;4369.35897464;4208.58974352;4398.07692343;2041.92307227;-0.00000896;-0.00000896;3613.33333202;4336.92307714;4268.97435905;4305.00000014;4302.69230784;4270.89743597;4202.30769224;4205.12820506
4207.05128199;4202.17948711;4142.94871774;4236.15384616;4404.10256445;2038.71794407;229.99999153;-0.00000896;3613.07692176;4340.00000021;4434.87179529;4305.12820527;4468.84615434;4271.02564110;4201.92307686;4205.12820506
4207.82051275;4202.43589737;4464.35897485;4236.92307693;4600.38461615;2040.76922612;-0.00000896;-0.00000896;3614.23076791;4365.89743618;4241.79487180;4302.94871809;4333.07692329;4272.94871802;4201.66666660;4205.12820506
4205.89743583;4201.79487173;4400.25641061;4236.53846154;4438.58974401;2072.69230311;229.99999153;-0.00000896;3612.30769099;4339.74358996;4332.82051303;4303.46153860;4141.02564082;4270.51282059;4203.07692301;4205.12820506
4206.41025634;4203.71794865;4272.17948725;4236.79487180;4497.82051338;2073.58973901;-0.00000896;-0.00000896;3584.35897297;4365.64102592;4266.66666674;4302.17948732;4401.66666702;4272.56410264;4202.17948711;4205.12820506
4207.17948711;4203.33333327;4562.17948788;4237.05128206;4501.79487235;2041.28204663;229.99999153;-0.00000896;3584.35897297;4339.61538483;4303.33333348;4302.56410271;4270.64102571;4271.92307700;4201.92307686;4205.12820506
4206.66666660;4205.12820506;4169.99999986;4236.02564103;4435.00000042;2009.23076451;-0.00000896;-0.00000896;3584.87179349;4371.15384644;4338.97435919;4301.79487194;4500.12820569;4271.41025648;4201.66666660;4205.12820506
4205.64102558;4202.69230763;4436.15384657;4236.28205129;4631.92307776;2009.61537989;229.99999153;-0.00000896;3580.38461400;4369.35897464;4272.43589751;4305.00000014;4332.94871816;4272.30769238;4202.82051275;4205.12820506
4206.79487173;4201.15384609;4268.33333341;4237.05128206;4500.38461594;2040.25640560;-0.00000896;-0.00000896;3551.15384470;4340.38461560;4463.58974408;4304.10256425;4398.58974394;4270.25641033;4202.17948711;4205.12820506
4206.92307686;4175.89743576;4433.58974401;4236.92307693;4531.02564165;2037.56409791;229.99999153;-0.00000896;3550.89743444;4338.84615406;4339.35897457;4303.07692322;4438.71794914;4271.53846161;4202.30769224;4205.12820506
4208.20512814;4173.20512807;4432.30769273;4236.53846154;4793.84615503;2038.84614919;-0.00000896;-0.00000896;3577.56410118;4339.87179508;4464.23076972;4303.20512835;4470.12820562;4271.15384623;4202.17948711;4205.12820506
4206.92307686;4172.94871781;4465.64102613;4236.28205129;4305.64102578;2068.07691849;229.99999153;-0.00000896;3584.10256272;4338.58974380;4203.84615378;4302.17948732;4471.41025690;4270.51282059;4174.99999986;4205.12820506
4203.20512814;4174.48717935;4201.02564096;4236.53846154;4465.12820562;2042.82050817;-0.00000896;-0.00000896;3585.25640887;4336.53846175;4532.94871858;4305.76923091;4266.92307700;4272.43589751;4201.79487173;4205.12820506
4201.28205122;4172.69230756;4367.69230797;4234.23076923;4467.82051331;2039.87179022;229.99999153;-0.00000896;3613.58974227;4306.02564117;4103.20512793;4301.28205142;4110.51282024;4273.46153853;4202.17948711;4205.12820506
4171.28205115;4171.02564089;4464.10256459;4233.97435898;4667.94871886;2041.15384150;-0.00000896;-0.00000896;3583.33333195;4300.51282066;4503.20512876;4304.23076937;4306.15384630;4270.89743597;4203.58974352;4172.30769217
4142.17948697;4170.38461525;4270.38461546;4235.89743590;4303.71794886;2069.35896978;229.99999153;-0.00000896;3548.58974213;4303.33333348;4564.74359044;4303.33333348;4471.15384664;4272.94871802;4201.79487173;4139.48717928
4137.82051262;4171.15384602;4436.53846196;4237.82051282;4662.82051373;2034.87179022;-0.00000896;-0.00000896;3549.99999854;4274.74358982;4367.69230797;4304.74358989;4102.56410229;4273.33333341;4201.92307686;4139.48717928
4108.97435870;4143.46153826;4399.87179522;4236.15384616;4365.51282079;2007.69230297;229.99999153;-0.00000896;3581.28204990;4268.71794879;4333.33333355;4301.66666681;4629.35897520;4271.53846161;4202.05128199;4106.66666639
4075.89743555;4143.20512800;4405.89743625;4235.64102564;4726.53846258;2010.12820041;33.46152957;-0.00000896;3614.74358843;4241.53846154;4434.61538504;4302.43589758;4340.12820534;4271.92307700;4202.05128199;4073.84615350
4039.48717907;4142.30769210;4398.20512856;4206.79487173;4470.64102613;2038.46153381;99.99999125;-0.00000896;3680.89743472;4207.17948711;4501.28205184;4303.58974373;4497.82051338;4270.51282059;4201.66666660;4041.02564061
3945.51281989;4143.07692287;4529.61538524;4205.12820506;4766.41025753;2007.05127733;38.46152957;-0.00000896;3777.30769134;4209.10256404;4401.15384651;4303.58974373;4433.58974401;4268.07692315;4202.05128199;3942.56410194
3845.25640943;4171.15384602;4333.20512842;4207.43589737;4567.56410326;2008.46153374;229.99999153;-0.00000896;3777.05128108;4269.35897443;4596.28205205;4301.92307707;4302.56410271;4271.92307700;4201.66666660;3844.10256327
3746.79487076;4173.46153833;4468.46153895;4208.07692301;4336.66666688;2068.33332875;229.99999153;-0.00000896;3776.41025544;4305.89743604;4207.56410250;4302.17948732;4338.71794893;4272.05128212;4203.84615378;3745.64102460
3677.56410139;4201.02564096;4405.64102599;4206.79487173;4662.56410347;2068.58973901;229.99999153;-0.00000896;3748.97435794;4372.56410285;4594.87179564;4304.87179501;4501.53846210;4270.25641033;4202.82051275;3679.99999882
3611.15384484;4203.33333327;4239.61538462;4204.99999993;4398.07692343;2071.66666208;229.99999153;-0.00000896;3745.38461435;4433.84615427;4565.89743660;4302.94871809;4269.87179495;4270.38461546;4203.20512814;3614.35897304
3551.66666521;4203.58974352;4562.17948788;4203.33333327;4596.02564179;2039.48717484;-0.00000896;-0.00000896;3709.48717838;4497.56410312;4531.66666730;4303.07692322;4365.12820541;4269.23076930;4202.56410250;3548.71794726
3519.10256258;4203.07692301;4371.28205156;4203.58974352;4565.38461608;2009.35896964;-0.00000896;-0.00000896;3643.07692183;4530.12820576;4135.89743569;4304.35897450;3978.20512765;4267.17948725;4203.71794865;3515.89743437
3544.74358829;4175.64102551;4303.97435912;4206.66666660;4437.05128247;2008.97435425;-0.00000896;-0.00000896;3583.97435759;4533.33333396;4139.87179467;4301.66666681;4562.94871865;4268.20512828;4205.38461532;3548.71794726
3552.43589598;4172.05128192;4367.43589772;4205.76923070;4469.61538511;2034.87179022;-0.00000896;-0.00000896;3583.07692169;4535.12820576;4172.69230756;4303.97435912;4269.74358982;4268.71794879;4203.58974352;3548.71794726
3611.53846022;4168.84615371;4368.71794900;4205.89743583;4274.74358982;2037.82050817;-0.00000896;-0.00000896;3610.51281920;4531.28205191;4075.76923043;4303.84615399;4499.87179543;4268.33333341;4204.23076917;3614.35897304
3644.74358850;4140.38461518;4371.15384644;4202.30769224;4373.07692336;2040.51281586;-0.00000896;-0.00000896;3585.12820374;4530.25641089;4006.41025593;4305.25641040;4238.58974359;4268.46153853;4204.74358968;3647.17948593
3678.20512703;4139.10256390;4240.89743590;4201.53846147;4371.02564131;2068.84614926;-0.00000896;-0.00000896;3611.02563971;4503.20512876;4532.43589807;4306.66666681;4139.48717928;4241.28205129;4205.64102558;3679.99999882
