Gyro-X;Gyro-Z;AF3;Gyro-Y;T7;Acc-X;Pz;QualityData_1;QualityData_2;Acc-Z;Acc-Y;T8;Mag-X;AF4;Mag-Z;Mag-Y;Mag-X;Gyro-X 
4205.25641019;4204.10256404;4207.56410250;4234.35897436;5091.28205309;1975.89743111;229.99999153;-0.00000896;4169.35897422;4304.10256425;4108.58974332;4302.17948732;4238.20512821;4171.15384602;4170.89743576;4205.12820506
4206.53846147;4203.71794865;4206.28205122;4235.25641026;4958.20512974;1975.38461059;229.99999153;-0.00000896;4169.74358961;4303.46153860;4139.23076903;4301.28205142;4267.05128212;4171.66666653;4171.02564089;4205.12820506
4205.89743583;4203.46153840;4267.05128212;4234.61538462;5029.10256577;1975.64102085;229.99999153;-0.00000896;4170.51282038;4303.58974373;4138.46153826;4300.38461553;4270.38461546;4170.38461525;4170.89743576;4205.12820506
4206.79487173;4203.97435891;4240.00000000;4233.97435898;4898.33333473;1976.15384136;229.99999153;-0.00000896;4171.41025628;4274.74358982;4172.82051269;4273.84615392;4303.58974373;4170.25641012;4171.53846140;4205.12820506
4206.28205122;4203.71794865;4238.84615385;4235.00000000;5155.12820708;1974.99999521;229.99999153;-0.00000896;4170.38461525;4302.94871809;4138.84615364;4301.02564117;4269.74358982;4170.12820499;4171.53846140;4205.12820506
4206.41025634;4203.97435891;4237.17948718;4234.23076923;4963.97436051;1976.02563623;229.99999153;-0.00000896;4170.51282038;4304.48717963;4136.28205108;4300.64102578;4272.82051289;4171.53846140;4171.28205115;4205.12820506
4206.28205122;4203.84615378;4235.00000000;4234.74358975;4995.89743750;1975.12820034;229.99999153;-0.00000896;4171.02564089;4274.35897443;4170.76923063;4300.25641040;4270.64102571;4171.28205115;4170.64102551;4205.12820506
4206.28205122;4203.84615378;4201.41025634;4234.10256411;5060.51282225;1975.89743111;229.99999153;-0.00000896;4170.89743576;4334.74358996;4172.05128192;4274.48717956;4274.61538469;4170.89743576;4171.02564089;4205.12820506
4206.66666660;4203.46153840;4237.17948718;4207.94871788;4995.89743750;1974.87179008;229.99999153;-0.00000896;4173.84615371;4334.61538483;4173.84615371;4303.46153860;4306.28205142;4172.43589730;4171.28205115;4205.12820506
4205.64102558;4204.35897429;4237.56410257;4208.84615378;4994.23077083;2004.35896964;229.99999153;-0.00000896;4171.28205115;4306.79487194;4170.76923063;4300.89743604;4272.82051289;4171.15384602;4170.89743576;4205.12820506
4204.74358968;4204.61538455;4206.53846147;4234.61538462;5154.87179682;1973.33332854;229.99999153;-0.00000896;4173.71794858;4337.05128226;4136.41025621;4273.97435905;4270.12820520;4169.99999986;4169.87179474;4205.12820506
4203.46153840;4203.84615378;4267.43589751;4208.58974352;5022.69230936;1974.74358495;229.99999153;-0.00000896;4171.92307679;4305.76923091;4170.38461525;4302.82051296;4301.15384630;4172.30769217;4170.89743576;4205.12820506
4205.25641019;4204.10256404;4207.69230763;4207.43589737;4897.82051421;1973.84614906;229.99999153;-0.00000896;4172.82051269;4334.61538483;4168.97435884;4301.79487194;4267.82051289;4170.89743576;4171.28205115;4205.12820506
4205.25641019;4202.43589737;4267.05128212;4207.82051275;4993.58974519;1973.97435418;229.99999153;-0.00000896;4174.99999986;4307.30769245;4172.05128192;4300.00000014;4268.97435905;4169.48717935;4170.76923063;4205.12820506
4203.71794865;4201.66666660;4203.07692301;4233.84615385;5127.94871983;1975.38461059;8274.48718804;-0.00000896;4174.48717935;4302.05128219;4139.74358954;4274.61538469;4236.79487180;4168.84615371;4171.66666653;4205.12820506
4204.87179481;4202.17948711;4205.12820506;4234.74358975;4958.07692461;1972.82050803;8240.12821361;-0.00000896;4172.17948704;4299.87179501;4135.89743569;4300.89743604;4241.79487180;4170.51282038;4171.15384602;4205.12820506
4205.89743583;4203.07692301;4267.05128212;4234.23076923;4991.53846314;1975.38461059;229.99999153;-0.00000896;4172.56410243;4302.43589758;4173.20512807;4302.17948732;4273.33333341;4168.33333320;4171.66666653;4205.12820506
4204.48717942;4203.07692301;4240.89743590;4235.00000000;5022.43589911;2002.05127733;8240.12821361;-0.00000896;4172.69230756;4332.43589765;4202.56410250;4301.15384630;4274.74358982;4169.48717935;4170.89743576;4205.12820506
4204.48717942;4203.71794865;4239.35897436;4234.35897436;4963.58974512;1975.89743111;-0.00000896;-0.00000896;4173.20512807;4306.53846168;4138.20512800;4301.02564117;4301.66666681;4169.74358961;4171.53846140;4205.12820506
4205.12820506;4203.71794865;4235.89743590;4234.61538462;5091.66666848;1976.28204649;-0.00000896;-0.00000896;4172.43589730;4306.66666681;4142.05128185;4300.38461553;4268.07692315;4170.51282038;4170.25641012;4205.12820506
4204.99999993;4203.97435891;4236.02564103;4235.89743590;4990.25641186;1974.87179008;-0.00000896;-0.00000896;4172.17948704;4301.02564117;4201.41025634;4299.61538476;4270.89743597;4169.74358961;4171.28205115;4205.12820506
4204.10256404;4204.23076917;4233.97435898;4236.66666667;5060.51282225;1974.10255931;-0.00000896;-0.00000896;4170.25641012;4335.00000021;4169.35897422;4299.87179501;4271.66666674;4169.74358961;4171.41025628;4205.12820506
4205.25641019;4204.61538455;4306.79487194;4235.12820513;4996.28205288;1974.74358495;-0.00000896;-0.00000896;4170.64102551;4304.10256425;4204.61538455;4301.28205142;4301.15384630;4170.38461525;4171.41025628;4205.12820506
4206.02564096;4203.46153840;4238.20512821;4235.76923077;4994.74359135;1973.58973880;-0.00000896;-0.00000896;4169.48717935;4332.94871816;4141.41025621;4300.64102578;4273.07692315;4171.79487166;4171.66666653;4205.12820506
4206.15384609;4203.71794865;4235.00000000;4236.15384616;5056.79487354;1973.97435418;-0.00000896;-0.00000896;4170.64102551;4305.00000014;4139.10256390;4300.51282066;4267.43589751;4171.02564089;4169.74358961;4205.12820506
4205.89743583;4203.58974352;4204.99999993;4234.48717949;4960.76923230;1970.64102085;-0.00000896;-0.00000896;4169.74358961;4332.82051303;4109.23076896;4274.35897443;4240.89743590;4170.38461525;4171.15384602;4205.12820506
4205.38461532;4203.71794865;4239.23076923;4235.12820513;5024.87179654;1973.33332854;-0.00000896;-0.00000896;4170.38461525;4334.87179508;4175.38461525;4300.64102578;4239.48717949;4171.53846140;4171.15384602;4205.12820506
4204.61538455;4202.69230763;4237.17948718;4234.48717949;5022.56410424;1975.76922598;-0.00000896;-0.00000896;4169.99999986;4306.79487194;4143.46153826;4301.41025655;4239.10256411;4170.51282038;4171.41025628;4205.12820506
4206.15384609;4202.17948711;4236.28205129;4234.35897436;4992.56410417;1976.15384136;-0.00000896;-0.00000896;4170.64102551;4333.20512842;4172.43589730;4300.38461553;4239.74358975;4171.28205115;4171.66666653;4205.12820506
4205.12820506;4203.07692301;4237.30769231;4209.10256404;5027.17948885;1975.38461059;-0.00000896;-0.00000896;4168.97435884;4306.28205142;4142.69230749;4302.56410271;4268.97435905;4171.02564089;4171.92307679;4205.12820506
4204.87179481;4203.46153840;4208.33333327;4208.71794865;4958.71795025;1972.30768752;-0.00000896;-0.00000896;4174.61538448;4335.38461560;4136.53846133;4302.30769245;4205.51282045;4171.28205115;4169.74358961;4205.12820506
4203.58974352;4201.79487173;4207.69230763;4234.23076923;5061.92307866;1974.87179008;-0.00000896;-0.00000896;4174.74358961;4306.41025655;4136.92307672;4274.74358982;4238.07692308;4171.15384602;4171.66666653;4205.12820506
4204.35897429;4203.33333327;4268.71794879;4235.12820513;4992.69230929;2002.43589271;-0.00000896;-0.00000896;4171.41025628;4303.20512835;4169.48717935;4299.87179501;4202.17948711;4171.28205115;4171.53846140;4205.12820506
4204.10256404;4203.20512814;4268.97435905;4235.76923077;4989.87179647;1975.12820034;-0.00000896;-0.00000896;4173.20512807;4305.51282066;4171.41025628;4300.12820527;4238.58974359;4171.15384602;4172.05128192;4205.12820506
4205.51282045;4203.33333327;4237.05128206;4234.74358975;5158.97436092;1976.28204649;-0.00000896;-0.00000896;4173.07692294;4305.12820527;4108.58974332;4300.38461553;4235.76923077;4172.05128192;4171.28205115;4205.12820506
4204.61538455;4204.23076917;4239.23076923;4235.51282052;4990.25641186;1972.05127726;-0.00000896;-0.00000896;4172.94871781;4301.66666681;4139.10256390;4299.61538476;4204.61538455;4171.92307679;4171.28205115;4205.12820506
4204.23076917;4205.25641019;4236.28205129;4236.28205129;5022.43589911;1971.92307213;-0.00000896;-0.00000896;4170.89743576;4306.79487194;4172.30769217;4302.17948732;4266.79487187;4171.66666653;4171.79487166;4205.12820506
4205.12820506;4203.46153840;4241.92307693;4237.17948718;5091.28205309;1969.48717470;-0.00000896;-0.00000896;4172.17948704;4333.58974380;4140.38461518;4300.38461553;4202.56410250;4170.51282038;4171.53846140;4205.12820506
4205.64102558;4203.33333327;4207.17948711;4237.56410257;5060.12820687;1972.17948239;229.99999153;-0.00000896;4170.64102551;4334.61538483;4139.87179467;4272.69230777;4207.17948711;4170.25641012;4171.53846140;4205.12820506
4205.76923070;4203.71794865;4206.15384609;4237.17948718;4993.46154006;1975.64102085;229.99999153;-0.00000896;4168.33333320;4333.33333355;4107.43589716;4300.00000014;4206.15384609;4171.02564089;4171.53846140;4205.12820506
4206.41025634;4203.33333327;4204.87179481;4235.89743590;5062.30769405;1973.46153367;229.99999153;-0.00000896;4168.46153833;4334.35897457;4138.07692287;4301.02564117;4269.87179495;4171.53846140;4171.28205115;4205.12820506
4206.53846147;4202.94871788;4240.25641026;4236.92307693;5028.07692475;1975.89743111;229.99999153;-0.00000896;4169.99999986;4337.56410278;4110.25640998;4274.23076930;4207.94871788;4171.66666653;4174.61538448;4205.12820506
4206.41025634;4201.92307686;4268.71794879;4235.25641026;4923.97436044;1976.02563623;8272.56411111;-0.00000896;4169.10256397;4336.02564124;4135.89743569;4299.74358989;4203.33333327;4170.12820499;4171.53846140;4205.12820506
4206.15384609;4202.05128199;4175.51282038;4234.74358975;4958.84615538;2002.43589271;136.41024773;-0.00000896;4169.74358961;4332.56410278;4140.64102544;4274.74358982;4174.61538448;4171.53846140;4171.66666653;4205.12820506
4206.15384609;4202.05128199;4138.71794851;4234.48717949;5058.46154020;2002.82050810;229.99999153;-0.00000896;4169.74358961;4307.05128219;4104.35897408;4301.53846168;4171.02564089;4170.64102551;4169.61538448;4205.12820506
4205.51282045;4201.53846147;4174.23076910;4233.84615385;4963.33333487;2004.48717477;136.41024773;-0.00000896;4171.02564089;4332.82051303;4141.28205108;4273.97435905;4174.10256397;4171.79487166;4171.79487166;4205.12820506
4204.35897429;4202.17948711;4238.46153847;4234.48717949;5093.97436078;1975.12820034;229.99999153;-0.00000896;4171.02564089;4302.43589758;4171.41025628;4302.69230784;4240.89743590;4170.76923063;4170.89743576;4205.12820506
4203.84615378;4203.20512814;4268.20512828;4234.48717949;5056.92307866;1974.74358495;136.41024773;-0.00000896;4172.69230756;4306.92307707;4142.05128185;4301.92307707;4234.61538462;4171.15384602;4171.53846140;4205.12820506
4204.10256404;4201.79487173;4206.53846147;4234.48717949;5089.23077104;1976.66666188;229.99999153;-0.00000896;4172.30769217;4304.35897450;4142.17948697;4301.92307707;4234.10256411;4171.66666653;4171.41025628;4205.12820506
4202.43589737;4201.66666660;4174.48717935;4235.00000000;4930.51282198;1976.02563623;136.41024773;-0.00000896;4171.28205115;4307.30769245;4142.69230749;4274.48717956;4175.64102551;4171.02564089;4171.79487166;4205.12820506
4204.35897429;4202.69230763;4233.97435898;4208.97435891;4991.28205288;2002.30768759;229.99999153;-0.00000896;4170.12820499;4332.30769252;4142.82051262;4302.05128219;4236.92307693;4171.28205115;4171.92307679;4205.12820506
4203.71794865;4202.56410250;4236.53846154;4234.10256411;5056.02564277;1976.15384136;136.41024773;-0.00000896;4171.15384602;4334.61538483;4140.89743569;4272.30769238;4208.20512814;4170.51282038;4171.02564089;4205.12820506
4203.84615378;4202.82051275;4174.23076910;4235.89743590;5026.28205295;1972.17948239;229.99999153;-0.00000896;4173.58974345;4332.94871816;4106.28205101;4274.35897443;4209.10256404;4171.15384602;4171.79487166;4205.12820506
4204.35897429;4203.71794865;4234.61538462;4235.76923077;5056.53846328;1970.89743111;136.41024773;-0.00000896;4170.25641012;4303.46153860;4171.53846140;4299.48717963;4235.64102564;4170.89743576;4171.53846140;4205.12820506
4204.87179481;4202.69230763;4208.84615378;4235.89743590;4993.07692468;1973.46153367;229.99999153;-0.00000896;4142.69230749;4334.61538483;4108.58974332;4300.25641040;4235.12820513;4171.53846140;4171.28205115;4205.12820506
4203.97435891;4203.58974352;4239.87179488;4237.05128206;5055.12820687;1975.25640547;136.41024773;-0.00000896;4141.79487159;4334.87179508;4136.02564082;4300.51282066;4273.07692315;4172.82051269;4171.66666653;4205.12820506
4205.51282045;4203.71794865;4268.58974366;4236.02564103;5060.00000174;1975.12820034;229.99999153;-0.00000896;4142.05128185;4335.25641047;4142.56410236;4302.30769245;4272.56410264;4172.43589730;4171.53846140;4205.12820506
4206.79487173;4203.58974352;4204.10256404;4235.64102564;4995.64102724;1973.84614906;136.41024773;-0.00000896;4142.82051262;4306.79487194;4077.56410222;4302.17948732;4202.69230763;4172.82051269;4171.66666653;4205.12820506
4205.38461532;4202.56410250;4174.87179474;4234.74358975;4927.56410403;1973.84614906;229.99999153;-0.00000896;4143.07692287;4306.92307707;4109.35897408;4301.28205142;4202.30769224;4169.74358961;4171.79487166;4205.12820506
4207.17948711;4201.15384609;4201.15384609;4235.76923077;5153.84615580;1973.84614906;136.41024773;-0.00000896;4168.97435884;4305.38461553;4135.76923056;4301.53846168;4237.56410257;4171.15384602;4170.25641012;4205.12820506
4205.64102558;4202.43589737;4237.82051282;4235.12820513;4891.02564242;1975.25640547;229.99999153;-0.00000896;4170.12820499;4335.00000021;4172.94871781;4301.79487194;4239.74358975;4172.30769217;4171.41025628;4205.12820506
4204.99999993;4201.41025634;4237.30769231;4234.61538462;4961.53846307;1975.25640547;136.41024773;-0.00000896;4169.99999986;4333.46153867;4108.07692280;4301.15384630;4272.43589751;4170.25641012;4173.71794858;4205.12820506
4205.51282045;4201.28205122;4239.35897436;4236.02564103;5060.12820687;1976.66666188;229.99999153;-0.00000896;4171.41025628;4335.12820534;4072.56410222;4301.66666681;4237.43589744;4170.38461525;4171.66666653;4205.12820506
4204.10256404;4201.02564096;4239.74358975;4235.76923077;4996.66666827;1972.43589265;136.41024773;-0.00000896;4170.64102551;4335.12820534;4104.35897408;4273.46153853;4267.17948725;4172.17948704;4171.66666653;4205.12820506
4203.58974352;4201.66666660;4266.79487187;4235.25641026;5056.92307866;1973.58973880;229.99999153;-0.00000896;4171.66666653;4306.41025655;4135.38461518;4299.74358989;4236.92307693;4170.76923063;4172.05128192;4205.12820506
4203.84615378;4201.41025634;4172.56410243;4234.87179488;4991.28205288;1973.84614906;136.41024773;-0.00000896;4170.89743576;4334.48717970;4107.69230742;4300.76923091;4235.25641026;4173.07692294;4171.53846140;4205.12820506
4202.94871788;4201.02564096;4238.07692308;4236.15384616;5023.33333500;2002.56409784;229.99999153;-0.00000896;4170.64102551;4307.05128219;4077.56410222;4300.76923091;4237.05128206;4170.76923063;4173.84615371;4205.12820506
4202.56410250;4201.28205122;4271.02564110;4235.64102564;5121.28205316;2002.94871323;136.41024773;-0.00000896;4169.74358961;4305.38461553;4075.38461504;4299.87179501;4268.07692315;4169.99999986;4171.02564089;4205.12820506
4202.82051275;4201.41025634;4241.15384616;4236.53846154;4991.41025801;1973.33332854;229.99999153;-0.00000896;4169.10256397;4302.69230784;4043.71794830;4300.38461553;4238.84615385;4169.48717935;4171.53846140;4205.12820506
4202.05128199;4201.41025634;4235.76923077;4236.02564103;4961.28205281;1972.56409777;136.41024773;-0.00000896;4169.48717935;4305.76923091;4075.12820478;4300.76923091;4268.07692315;4171.28205115;4171.28205115;4205.12820506
4202.69230763;4201.28205122;4302.56410271;4236.92307693;5022.05128372;1973.84614906;229.99999153;-0.00000896;4143.20512800;4306.15384630;4138.46153826;4303.20512835;4271.15384623;4171.15384602;4172.17948704;4205.12820506
4202.82051275;4203.20512814;4176.28205115;4236.28205129;5093.46154027;1975.12820034;8245.12821361;-0.00000896;4143.33333313;4336.15384637;4107.94871767;4300.25641040;4206.15384609;4170.51282038;4171.66666653;4205.12820506
4204.35897429;4202.56410250;4239.87179488;4235.64102564;4925.12820659;1975.64102085;229.99999153;-0.00000896;4168.20512807;4338.97435919;4170.12820499;4300.76923091;4268.97435905;4171.66666653;4171.92307679;4205.12820506
4204.87179481;4203.46153840;4234.74358975;4235.51282052;5125.64102752;1971.66666188;229.99999153;-0.00000896;4168.33333320;4334.23076944;4137.43589723;4300.25641040;4237.30769231;4168.46153833;4169.99999986;4205.12820506
4203.46153840;4202.56410250;4206.53846147;4235.64102564;5027.56410424;1976.28204649;-0.00000896;-0.00000896;4170.64102551;4332.30769252;4077.56410222;4302.05128219;4208.33333327;4171.41025628;4171.41025628;4205.12820506
4204.35897429;4201.53846147;4267.69230777;4235.89743590;5025.64102731;1975.64102085;-0.00000896;-0.00000896;4169.35897422;4305.51282066;4103.07692280;4301.79487194;4236.92307693;4170.76923063;4171.15384602;4205.12820506
4204.23076917;4201.41025634;4207.17948711;4236.02564103;4956.15384769;1975.12820034;-0.00000896;-0.00000896;4142.56410236;4305.00000014;4009.99999952;4300.25641040;4201.15384609;4171.66666653;4171.41025628;4205.12820506
4204.10256404;4202.30769224;4239.10256411;4236.79487180;5122.43589932;1974.61537982;-0.00000896;-0.00000896;4168.58974345;4302.69230784;4103.58974332;4273.20512828;4299.48717963;4169.99999986;4171.79487166;4205.12820506
4204.99999993;4203.07692301;4234.23076923;4236.28205129;4958.58974512;1974.35896957;-0.00000896;-0.00000896;4141.53846133;4332.82051303;4104.61538434;4300.00000014;4267.17948725;4172.43589730;4171.41025628;4205.12820506
4205.25641019;4202.69230763;4237.94871795;4235.51282052;4925.00000146;1975.12820034;-0.00000896;-0.00000896;4143.07692287;4333.97435919;4136.53846133;4273.97435905;4235.76923077;4172.05128192;4170.76923063;4205.12820506
4204.99999993;4202.94871788;4175.89743576;4236.92307693;5056.92307866;2002.43589271;-0.00000896;-0.00000896;4141.66666646;4334.87179508;4010.51282003;4300.51282066;4203.33333327;4170.25641012;4171.66666653;4205.12820506
4205.76923070;4203.58974352;4175.76923063;4235.64102564;4993.84615545;1977.30768752;-0.00000896;-0.00000896;4142.43589723;4304.48717963;4041.41025600;4300.76923091;4206.15384609;4169.74358961;4171.79487166;4205.12820506
4206.15384609;4201.79487173;4142.43589723;4235.64102564;4963.71795025;1974.87179008;-0.00000896;-0.00000896;4142.17948697;4306.02564117;4005.89743541;4300.38461553;4173.07692294;4171.53846140;4171.41025628;4205.12820506
4205.76923070;4203.58974352;4171.53846140;4236.28205129;5062.17948892;1976.28204649;-0.00000896;-0.00000896;4140.64102544;4332.56410278;4044.87179446;4300.38461553;4202.94871788;4170.89743576;4169.87179474;4205.12820506
4206.28205122;4204.23076917;4202.82051275;4236.15384616;5026.79487347;1976.79486700;-0.00000896;-0.00000896;4138.84615364;4332.69230790;4044.87179446;4274.48717956;4201.79487173;4171.53846140;4173.07692294;4205.12820506
4206.41025634;4203.07692301;4168.20512807;4235.89743590;5060.25641200;1976.92307213;-0.00000896;-0.00000896;4138.07692287;4333.20512842;4108.33333306;4301.53846168;4241.15384616;4171.79487166;4171.92307679;4205.12820506
4205.89743583;4204.23076917;4168.71794858;4235.00000000;5087.30769412;2002.17948246;-0.00000896;-0.00000896;4139.23076903;4304.61538476;4009.23076875;4302.05128219;4138.84615364;4171.92307679;4172.82051269;4205.12820506
4206.66666660;4203.07692301;4136.66666646;4234.87179488;5025.89743757;1972.17948239;-0.00000896;-0.00000896;4141.92307672;4307.30769245;4039.48717907;4303.58974373;4201.41025634;4171.02564089;4171.28205115;4205.12820506
4205.64102558;4203.97435891;4138.07692287;4234.87179488;4990.76923237;1972.30768752;-0.00000896;-0.00000896;4140.12820492;4304.48717963;4011.53846106;4300.12820527;4142.05128185;4172.05128192;4171.66666653;4205.12820506
4205.89743583;4202.94871788;4170.64102551;4235.00000000;4961.28205281;1973.97435418;-0.00000896;-0.00000896;4142.56410236;4335.76923098;4103.58974332;4303.33333348;4174.99999986;4172.82051269;4171.92307679;4205.12820506
4206.41025634;4203.33333327;4175.25641012;4234.23076923;5127.30769419;2002.69230297;-0.00000896;-0.00000896;4139.35897415;4333.97435919;4102.69230742;4301.53846168;4235.89743590;4170.51282038;4168.97435884;4205.12820506
4205.89743583;4203.20512814;4174.99999986;4234.61538462;5122.82051470;1977.17948239;-0.00000896;-0.00000896;4142.17948697;4334.74358996;4042.82051241;4300.51282066;4175.51282038;4172.94871781;4171.66666653;4205.12820506
4205.12820506;4203.20512814;4206.15384609;4235.00000000;4897.56410396;1972.30768752;-0.00000896;-0.00000896;4143.20512800;4334.35897457;4040.25640984;4300.51282066;4175.25641012;4172.43589730;4171.79487166;4205.12820506
4204.74358968;4203.07692301;4236.41025641;4235.64102564;5058.58974533;1974.35896957;-0.00000896;-0.00000896;4143.20512800;4306.41025655;4069.74358940;4302.30769245;4208.71794865;4172.30769217;4171.53846140;4205.12820506
4204.23076917;4204.10256404;4209.10256404;4235.64102564;4990.25641186;1976.02563623;-0.00000896;-0.00000896;4140.25641005;4333.46153867;4076.41025607;4273.58974366;4208.84615378;4170.64102551;4171.53846140;4205.12820506
4205.51282045;4203.84615378;4171.66666653;4235.51282052;4993.97436058;1974.87179008;-0.00000896;-0.00000896;4140.12820492;4335.25641047;4072.82051248;4300.64102578;4175.76923063;4171.15384602;4169.99999986;4205.12820506
4205.76923070;4202.82051275;4137.94871774;4235.76923077;4957.82051435;2002.17948246;-0.00000896;-0.00000896;4141.15384595;4335.38461560;4071.79487145;4300.89743604;4175.38461525;4171.79487166;4171.66666653;4205.12820506
4205.64102558;4204.10256404;4175.25641012;4235.51282052;5123.46154034;1974.74358495;-0.00000896;-0.00000896;4142.82051262;4307.30769245;4070.64102530;4299.61538476;4202.94871788;4171.53846140;4174.35897422;4205.12820506
4206.15384609;4203.84615378;4233.84615385;4235.89743590;5029.10256577;1974.10255931;229.99999153;-0.00000896;4139.61538441;4306.79487194;4073.84615350;4301.15384630;4202.43589737;4172.43589730;4171.92307679;4205.12820506
4205.12820506;4204.74358968;4239.35897436;4236.28205129;5087.30769412;1973.71794393;8242.69231617;-0.00000896;4140.64102544;4305.25641040;4108.84615357;4300.51282066;4270.64102571;4171.79487166;4169.74358961;4205.12820506
4204.61538455;4203.07692301;4235.38461539;4235.64102564;5094.23077104;1975.25640547;8245.64103412;-0.00000896;4140.89743569;4307.17948732;4076.66666632;4274.61538469;4266.79487187;4172.05128192;4171.66666653;4205.12820506
4205.25641019;4203.71794865;4141.92307672;4234.61538462;4994.48718109;1974.10255931;-0.00000896;-0.00000896;4139.48717928;4335.64102585;4044.23076882;4301.66666681;4205.12820506;4172.82051269;4171.79487166;4205.12820506
4204.74358968;4202.82051275;4168.58974345;4235.25641026;4995.12820673;1975.12820034;229.99999153;-0.00000896;4140.64102544;4335.38461560;4105.38461511;4274.74358982;4204.23076917;4170.12820499;4171.79487166;4205.12820506
4203.71794865;4203.71794865;4237.05128206;4234.87179488;4995.00000160;1975.76922598;229.99999153;-0.00000896;4140.64102544;4332.30769252;4108.07692280;4302.30769245;4203.33333327;4171.28205115;4171.79487166;4205.12820506
4203.46153840;4203.71794865;4204.99999993;4236.28205129;5056.15384789;1975.89743111;229.99999153;-0.00000896;4139.61538441;4336.79487201;4107.43589716;4302.69230784;4267.43589751;4172.82051269;4171.53846140;4205.12820506
4203.71794865;4203.07692301;4239.35897436;4235.64102564;4995.00000160;1974.48717470;229.99999153;-0.00000896;4138.71794851;4336.66666688;4104.23076896;4302.43589758;4206.28205122;4173.71794858;4171.79487166;4205.12820506
4202.94871788;4203.58974352;4201.66666660;4234.74358975;5022.30769398;1975.25640547;229.99999153;-0.00000896;4140.12820492;4335.25641047;4077.30769196;4299.87179501;4237.17948718;4172.05128192;4171.28205115;4205.12820506
4205.12820506;4202.17948711;4268.07692315;4235.12820513;5123.07692496;2003.07691836;229.99999153;-0.00000896;4139.74358954;4335.89743611;4140.25641005;4302.30769245;4241.41025641;4172.30769217;4172.17948704;4205.12820506
4203.84615378;4201.92307686;4268.58974366;4235.89743590;4990.51282211;1975.76922598;229.99999153;-0.00000896;4139.10256390;4333.46153867;4138.46153826;4300.76923091;4238.07692308;4171.79487166;4172.94871781;4205.12820506
4204.23076917;4203.20512814;4270.25641033;4234.35897436;4990.76923237;1976.66666188;229.99999153;-0.00000896;4140.25641005;4336.28205149;4139.61538441;4301.15384630;4240.51282052;4172.05128192;4171.28205115;4205.12820506
4202.82051275;4202.82051275;4202.82051275;4235.25641026;5092.30769412;1975.51281572;229.99999153;-0.00000896;4140.38461518;4307.56410271;4104.10256383;4301.92307707;4205.38461532;4171.79487166;4171.41025628;4205.12820506
4203.71794865;4202.56410250;4173.20512807;4235.12820513;4924.74359121;1974.87179008;229.99999153;-0.00000896;4137.30769210;4335.51282073;4105.64102537;4302.69230784;4204.23076917;4171.53846140;4171.53846140;4205.12820506
4204.61538455;4203.58974352;4206.92307686;4235.25641026;5061.79487354;2002.94871323;229.99999153;-0.00000896;4139.61538441;4305.51282066;4139.48717928;4301.02564117;4269.87179495;4172.17948704;4172.56410243;4205.12820506
4203.97435891;4204.35897429;4267.30769238;4235.76923077;5056.28205302;1974.48717470;229.99999153;-0.00000896;4139.23076903;4333.20512842;4202.56410250;4300.00000014;4301.79487194;4171.02564089;4171.41025628;4205.12820506
4204.99999993;4202.94871788;4234.61538462;4234.61538462;4996.53846314;1972.17948239;229.99999153;-0.00000896;4140.25641005;4305.38461553;4172.69230756;4300.38461553;4267.43589751;4169.74358961;4172.82051269;4205.12820506
4205.12820506;4203.71794865;4204.35897429;4235.76923077;4989.61538622;1977.05127726;229.99999153;-0.00000896;4138.84615364;4337.30769252;4109.10256383;4301.92307707;4235.89743590;4172.05128192;4171.92307679;4205.12820506
4203.97435891;4203.84615378;4238.33333334;4235.51282052;5023.07692475;1976.41025162;229.99999153;-0.00000896;4139.35897415;4336.66666688;4107.43589716;4300.12820527;4207.56410250;4170.64102551;4171.79487166;4205.12820506
4206.15384609;4203.71794865;4203.84615378;4234.61538462;4931.02564249;1974.74358495;229.99999153;-0.00000896;4138.97435877;4306.66666681;4076.66666632;4302.43589758;4203.58974352;4171.79487166;4171.79487166;4205.12820506
4205.89743583;4202.94871788;4202.17948711;4235.12820513;5059.74359148;1972.69230290;229.99999153;-0.00000896;4141.66666646;4334.23076944;4168.71794858;4302.17948732;4268.46153853;4171.15384602;4172.17948704;4205.12820506
4205.12820506;4202.17948711;4236.66666667;4234.23076923;5027.05128372;1970.76922598;229.99999153;-0.00000896;4141.41025621;4333.71794893;4171.66666653;4299.74358989;4240.51282052;4170.12820499;4169.48717935;4205.12820506
4204.74358968;4202.43589737;4204.99999993;4235.25641026;5026.41025808;1972.43589265;229.99999153;-0.00000896;4139.23076903;4337.17948739;4138.71794851;4272.94871802;4269.10256418;4171.92307679;4171.66666653;4205.12820506
4204.74358968;4202.94871788;4299.87179501;4237.05128206;5191.53846356;1977.17948239;229.99999153;-0.00000896;4138.58974339;4335.00000021;4202.94871788;4300.89743604;4270.25641033;4172.05128192;4171.28205115;4205.12820506
4205.38461532;4202.43589737;4208.97435891;4235.51282052;4994.74359135;1976.66666188;229.99999153;-0.00000896;4138.58974339;4334.74358996;4109.87179460;4301.28205142;4206.28205122;4170.38461525;4171.79487166;4205.12820506
4204.87179481;4203.58974352;4206.66666660;4235.12820513;5055.76923251;1974.35896957;229.99999153;-0.00000896;4137.82051262;4333.33333355;4139.99999980;4300.25641040;4239.23076923;4171.79487166;4171.15384602;4205.12820506
4205.25641019;4204.74358968;4173.84615371;4235.12820513;5054.74359148;1977.05127726;229.99999153;-0.00000896;4138.20512800;4339.23076944;4107.94871767;4301.79487194;4202.94871788;4171.53846140;4171.92307679;4205.12820506
4204.74358968;4204.48717942;4173.33333320;4235.12820513;5187.05128407;2003.46153374;229.99999153;-0.00000896;4138.71794851;4334.23076944;4169.23076910;4300.89743604;4207.94871788;4171.41025628;4172.17948704;4205.12820506
4203.84615378;4204.23076917;4208.84615378;4235.25641026;4996.79487340;2002.69230297;229.99999153;-0.00000896;4137.56410236;4335.00000021;4172.69230756;4300.89743604;4235.25641026;4170.89743576;4171.28205115;4205.12820506
4205.38461532;4203.58974352;4269.74358982;4235.25641026;5057.82051456;1973.71794393;229.99999153;-0.00000896;4139.23076903;4366.41025669;4173.07692294;4272.82051289;4270.00000007;4171.79487166;4172.05128192;4205.12820506
4204.99999993;4202.82051275;4269.35897443;4209.10256404;4994.48718109;1976.79486700;229.99999153;-0.00000896;4138.84615364;4338.07692329;4140.89743569;4299.48717963;4269.35897443;4170.76923063;4171.92307679;4205.12820506
4204.35897429;4203.33333327;4236.92307693;4235.38461539;4963.84615538;2002.43589271;229.99999153;-0.00000896;4136.79487159;4334.48717970;4136.02564082;4300.76923091;4234.61538462;4170.76923063;4172.05128192;4205.12820506
4205.38461532;4202.05128199;4235.38461539;4233.97435898;5061.92307866;1977.05127726;229.99999153;-0.00000896;4138.07692287;4336.02564124;4108.97435870;4301.79487194;4241.79487180;4170.64102551;4175.76923063;4205.12820506
4204.23076917;4202.82051275;4235.64102564;4234.61538462;5088.58974540;1972.05127726;229.99999153;-0.00000896;4140.51282031;4332.30769252;4168.46153833;4300.64102578;4271.15384623;4172.43589730;4171.41025628;4205.12820506
4204.35897429;4202.30769224;4268.58974366;4235.00000000;4957.43589897;1974.10255931;229.99999153;-0.00000896;4139.35897415;4335.12820534;4206.02564096;4303.33333348;4239.61538462;4169.48717935;4171.79487166;4205.12820506
4204.10256404;4202.43589737;4236.41025641;4235.25641026;4893.33333473;1975.12820034;229.99999153;-0.00000896;4138.71794851;4338.20512842;4168.58974345;4301.79487194;4239.61538462;4170.25641012;4171.79487166;4205.12820506
4205.12820506;4202.05128199;4234.23076923;4235.38461539;5057.05128379;2004.61537989;229.99999153;-0.00000896;4136.92307672;4337.30769252;4106.41025614;4272.82051289;4205.38461532;4171.41025628;4171.15384602;4205.12820506
4204.48717942;4202.56410250;4300.25641040;4234.61538462;4923.20512967;1974.74358495;229.99999153;-0.00000896;4140.38461518;4332.56410278;4139.10256390;4302.30769245;4236.28205129;4171.28205115;4170.89743576;4205.12820506
4204.87179481;4202.43589737;4236.41025641;4235.51282052;4996.66666827;1973.33332854;229.99999153;-0.00000896;4139.35897415;4365.38461567;4139.87179467;4301.53846168;4208.97435891;4171.02564089;4171.79487166;4205.12820506
4205.12820506;4201.66666660;4234.61538462;4235.51282052;5060.38461713;1974.35896957;229.99999153;-0.00000896;4139.87179467;4337.17948739;4109.10256383;4300.76923091;4171.28205115;4171.66666653;4170.76923063;4205.12820506
4204.87179481;4201.53846147;4175.38461525;4236.15384616;4963.97436051;1974.87179008;229.99999153;-0.00000896;4137.30769210;4336.15384637;4139.61538441;4301.15384630;4206.28205122;4171.53846140;4171.79487166;4205.12820506
4204.10256404;4202.05128199;4234.35897436;4236.79487180;4959.10256564;1976.15384136;-0.00000896;-0.00000896;4135.89743569;4336.02564124;4172.94871781;4299.87179501;4235.89743590;4171.28205115;4173.97435884;4205.12820506
4205.51282045;4202.05128199;4234.23076923;4236.15384616;5154.61538656;1974.35896957;-0.00000896;-0.00000896;4136.66666646;4336.79487201;4174.10256397;4301.53846168;4272.82051289;4171.92307679;4171.41025628;4205.12820506
4204.61538455;4202.30769224;4235.64102564;4235.00000000;5058.20512995;1976.15384136;-0.00000896;-0.00000896;4137.82051262;4333.97435919;4106.79487152;4302.43589758;4236.02564103;4171.92307679;4172.05128192;4205.12820506
4204.87179481;4201.92307686;4267.17948725;4234.35897436;4890.76923216;1975.76922598;-0.00000896;-0.00000896;4138.71794851;4335.51282073;4077.30769196;4301.28205142;4237.43589744;4171.79487166;4171.66666653;4205.12820506
4204.99999993;4201.79487173;4272.43589751;4234.23076923;5251.66666882;1974.23076444;-0.00000896;-0.00000896;4138.58974339;4333.46153867;4169.74358961;4301.79487194;4240.12820513;4173.07692294;4171.92307679;4205.12820506
4204.48717942;4201.15384609;4273.84615392;4235.76923077;5023.46154013;1974.99999521;-0.00000896;-0.00000896;4138.20512800;4339.87179508;4237.17948718;4274.23076930;4274.61538469;4172.17948704;4171.92307679;4205.12820506
4204.35897429;4201.02564096;4267.94871802;4235.38461539;4996.02564263;1976.41025162;-0.00000896;-0.00000896;4139.23076903;4336.92307714;4207.30769224;4301.28205142;4266.79487187;4172.17948704;4172.05128192;4205.12820506
4205.25641019;4201.53846147;4234.87179488;4234.10256411;4893.46153986;1976.28204649;-0.00000896;-0.00000896;4136.66666646;4334.74358996;4107.94871767;4299.48717963;4202.56410250;4171.53846140;4171.79487166;4205.12820506
4203.33333327;4176.02564089;4234.10256411;4235.12820513;5058.84615559;1974.61537982;-0.00000896;-0.00000896;4138.20512800;4305.38461553;4109.35897408;4302.30769245;4234.35897436;4169.74358961;4171.66666653;4205.12820506
4203.07692301;4201.79487173;4273.46153853;4234.87179488;5021.92307859;1974.99999521;-0.00000896;-0.00000896;4137.05128185;4306.41025655;4138.58974339;4301.53846168;4241.92307693;4171.66666653;4172.69230756;4205.12820506
4204.61538455;4176.02564089;4267.30769238;4208.97435891;4992.43589904;1977.17948239;-0.00000896;-0.00000896;4138.33333313;4335.76923098;4135.64102544;4301.41025655;4239.87179488;4171.79487166;4171.53846140;4205.12820506
4202.69230763;4201.41025634;4204.35897429;4235.38461539;4993.71795032;2004.61537989;-0.00000896;-0.00000896;4140.38461518;4332.94871816;4107.05128178;4301.15384630;4209.10256404;4170.12820499;4171.79487166;4205.12820506
4202.69230763;4201.66666660;4203.97435891;4233.97435898;4990.12820673;2002.56409784;-0.00000896;-0.00000896;4139.35897415;4306.53846168;4139.87179467;4301.15384630;4174.61538448;4170.89743576;4171.92307679;4205.12820506
4203.46153840;4201.53846147;4234.23076923;4234.10256411;5059.87179661;2002.43589271;-0.00000896;-0.00000896;4138.20512800;4304.87179501;4138.20512800;4299.87179501;4205.38461532;4170.64102551;4172.69230756;4205.12820506
4203.20512814;4202.05128199;4268.71794879;4234.35897436;5027.05128372;1976.92307213;-0.00000896;-0.00000896;4139.74358954;4305.51282066;4143.20512800;4274.35897443;4238.97435898;4172.30769217;4171.92307679;4205.12820506
4204.48717942;4201.79487173;4272.94871802;4208.84615378;5055.25641200;1976.28204649;-0.00000896;-0.00000896;4138.07692287;4332.56410278;4171.79487166;4301.53846168;4274.61538469;4172.82051269;4171.02564089;4205.12820506
4203.58974352;4202.82051275;4208.71794865;4235.64102564;5027.05128372;2003.58973887;-0.00000896;-0.00000896;4138.07692287;4334.35897457;4137.56410236;4274.74358982;4235.89743590;4172.05128192;4171.41025628;4205.12820506
4203.71794865;4203.20512814;4267.56410264;4208.58974352;5056.53846328;1974.99999521;-0.00000896;-0.00000896;4138.97435877;4335.89743611;4139.48717928;4274.23076930;4236.28205129;4173.33333320;4171.66666653;4205.12820506
4203.46153840;4203.33333327;4268.97435905;4234.23076923;4863.97436030;1971.66666188;-0.00000896;-0.00000896;4138.97435877;4337.17948739;4171.66666653;4272.94871802;4208.46153840;4172.56410243;4171.53846140;4205.12820506
4205.51282045;4202.69230763;4269.23076930;4235.12820513;4994.10256570;1975.25640547;-0.00000896;-0.00000896;4138.33333313;4336.92307714;4170.38461525;4299.87179501;4234.10256411;4173.20512807;4172.05128192;4205.12820506
4205.25641019;4201.53846147;4234.48717949;4235.51282052;5093.71795053;2002.69230297;-0.00000896;-0.00000896;4136.92307672;4332.43589765;4169.48717935;4300.12820527;4239.61538462;4172.69230756;4171.02564089;4205.12820506
4204.35897429;4204.48717942;4234.48717949;4235.64102564;5123.58974547;2003.20512348;-0.00000896;-0.00000896;4136.66666646;4306.41025655;4136.02564082;4274.23076930;4208.33333327;4171.41025628;4171.53846140;4205.12820506
4206.79487173;4202.82051275;4237.30769231;4235.76923077;4961.66666820;1975.12820034;-0.00000896;-0.00000896;4140.51282031;4305.89743604;4139.10256390;4299.87179501;4237.05128206;4172.43589730;4171.28205115;4205.12820506
4204.48717942;4203.58974352;4300.64102578;4236.02564103;4992.94871955;1975.64102085;-0.00000896;-0.00000896;4139.87179467;4306.02564117;4207.69230763;4274.23076930;4269.87179495;4172.94871781;4171.41025628;4205.12820506
4205.25641019;4202.30769224;4206.15384609;4234.74358975;5095.25641207;1972.69230290;-0.00000896;-0.00000896;4139.23076903;4333.97435919;4172.56410243;4299.48717963;4234.10256411;4171.15384602;4172.69230756;4205.12820506
4205.51282045;4203.20512814;4241.53846154;4235.51282052;5022.94871962;1973.71794393;229.99999153;-0.00000896;4139.87179467;4334.35897457;4171.02564089;4301.92307707;4239.23076923;4173.07692294;4171.15384602;4205.12820506
4204.87179481;4202.94871788;4273.46153853;4237.05128206;5187.69230971;1974.74358495;229.99999153;-0.00000896;4139.23076903;4334.35897457;4175.38461525;4274.61538469;4301.79487194;4172.43589730;4171.79487166;4205.12820506
4204.48717942;4202.94871788;4274.74358982;4236.41025641;4995.89743750;2002.05127733;229.99999153;-0.00000896;4137.17948697;4307.56410271;4176.02564089;4274.74358982;4267.17948725;4172.17948704;4170.89743576;4205.12820506
4206.02564096;4203.07692301;4271.28205136;4234.61538462;5087.43589925;1977.05127726;229.99999153;-0.00000896;4136.66666646;4333.58974380;4140.89743569;4299.74358989;4241.02564103;4172.94871781;4171.92307679;4205.12820506
4204.87179481;4204.35897429;4267.56410264;4235.64102564;4832.56410382;1975.38461059;8274.10257265;-0.00000896;4136.41025621;4333.71794893;4141.66666646;4301.41025655;4204.87179481;4172.69230756;4169.10256397;4205.12820506
4205.64102558;4203.71794865;4239.23076923;4235.12820513;5126.92307880;1975.64102085;137.82050414;-0.00000896;4137.94871774;4337.17948739;4201.02564096;4302.43589758;4201.66666660;4174.35897422;4171.66666653;4205.12820506
4206.79487173;4203.58974352;4269.87179495;4235.12820513;5022.69230936;1977.05127726;229.99999153;-0.00000896;4136.28205108;4337.17948739;4239.10256411;4300.38461553;4268.58974366;4173.46153833;4172.05128192;4205.12820506
4206.41025634;4204.87179481;4303.07692322;4235.89743590;5061.02564277;1975.64102085;137.82050414;-0.00000896;4137.17948697;4336.41025662;4240.00000000;4301.15384630;4305.00000014;4172.82051269;4171.28205115;4205.12820506
4206.15384609;4202.69230763;4303.33333348;4235.64102564;5023.20512988;1974.23076444;229.99999153;-0.00000896;4137.30769210;4338.58974380;4172.69230756;4302.56410271;4239.23076923;4172.30769217;4171.53846140;4205.12820506
4205.51282045;4203.71794865;4268.46153853;4235.89743590;5055.51282225;2002.82050810;137.82050414;-0.00000896;4136.66666646;4336.41025662;4106.53846126;4273.20512828;4208.07692301;4172.43589730;4171.79487166;4205.12820506
4206.41025634;4202.17948711;4267.05128212;4235.25641026;4957.94871948;2002.05127733;229.99999153;-0.00000896;4137.82051262;4340.00000021;4169.61538448;4299.61538476;4238.84615385;4173.33333320;4171.02564089;4205.12820506
4205.12820506;4203.84615378;4273.07692315;4234.74358975;5022.82051449;1976.02563623;137.82050414;-0.00000896;4138.33333313;4334.74358996;4203.84615378;4300.12820527;4240.89743590;4171.92307679;4169.48717935;4205.12820506
4205.25641019;4202.43589737;4269.74358982;4235.89743590;5056.92307866;2002.30768759;229.99999153;-0.00000896;4138.20512800;4335.64102585;4207.43589737;4273.84615392;4238.07692308;4173.58974345;4171.41025628;4205.12820506
4204.48717942;4203.46153840;4239.35897436;4236.28205129;5089.10256591;1975.89743111;137.82050414;-0.00000896;4136.28205108;4333.46153867;4172.17948704;4300.51282066;4236.92307693;4173.84615371;4171.53846140;4205.12820506
4203.97435891;4204.74358968;4267.43589751;4235.00000000;4990.89743750;2002.82050810;229.99999153;-0.00000896;4137.05128185;4339.35897457;4171.79487166;4301.15384630;4236.79487180;4173.33333320;4171.79487166;4205.12820506
4204.99999993;4202.82051275;4303.33333348;4234.61538462;5027.82051449;1976.79486700;137.82050414;-0.00000896;4136.66666646;4334.23076944;4169.74358961;4300.38461553;4239.74358975;4173.46153833;4170.89743576;4205.12820506
4205.25641019;4202.56410250;4269.35897443;4234.35897436;4991.79487340;1975.25640547;229.99999153;-0.00000896;4137.82051262;4335.64102585;4203.33333327;4302.05128219;4274.35897443;4174.10256397;4171.79487166;4205.12820506
4205.12820506;4202.69230763;4267.69230777;4235.76923077;4962.82051435;1972.69230290;137.82050414;-0.00000896;4137.43589723;4335.89743611;4171.02564089;4303.33333348;4206.53846147;4172.17948704;4172.05128192;4205.12820506
4204.74358968;4202.43589737;4238.33333334;4235.25641026;4928.46153992;1975.25640547;229.99999153;-0.00000896;4109.87179460;4335.25641047;4203.33333327;4300.51282066;4208.07692301;4173.20512807;4171.41025628;4205.12820506
4204.61538455;4203.33333327;4268.97435905;4236.15384616;5091.92307873;1975.76922598;137.82050414;-0.00000896;4108.58974332;4332.69230790;4204.99999993;4300.38461553;4239.61538462;4172.56410243;4170.12820499;4205.12820506
4206.02564096;4203.71794865;4337.30769252;4236.28205129;5026.28205295;1975.25640547;229.99999153;-0.00000896;4136.66666646;4337.82051303;4234.61538462;4300.25641040;4274.48717956;4173.46153833;4171.66666653;4205.12820506
4204.35897429;4204.10256404;4301.66666681;4235.76923077;4959.23077076;2002.82050810;137.82050414;-0.00000896;4136.41025621;4335.89743611;4174.35897422;4301.92307707;4238.84615385;4175.12820499;4171.92307679;4205.12820506
4204.48717942;4204.23076917;4269.10256418;4235.89743590;4994.23077083;1975.51281572;229.99999153;-0.00000896;4136.41025621;4333.20512842;4175.64102551;4300.89743604;4271.53846161;4174.48717935;4171.28205115;4205.12820506
4203.71794865;4204.99999993;4237.30769231;4236.02564103;5155.76923272;1974.87179008;137.82050414;-0.00000896;4109.10256383;4339.61538483;4169.23076910;4299.87179501;4270.64102571;4172.30769217;4171.79487166;4205.12820506
4203.84615378;4203.97435891;4208.97435891;4235.12820513;4896.66666806;1976.28204649;229.99999153;-0.00000896;4135.51282031;4337.94871816;4141.41025621;4299.74358989;4236.92307693;4174.48717935;4172.17948704;4205.12820506
4204.48717942;4203.58974352;4305.89743604;4233.84615385;5059.23077097;1975.25640547;137.82050414;-0.00000896;4110.12820485;4340.00000021;4202.43589737;4301.15384630;4267.30769238;4173.46153833;4172.17948704;4205.12820506
4203.84615378;4203.33333327;4304.23076937;4235.00000000;5090.64102745;1975.76922598;229.99999153;-0.00000896;4109.48717921;4336.41025662;4238.58974359;4300.89743604;4333.46153867;4173.20512807;4172.43589730;4205.12820506
4204.61538455;4203.46153840;4240.51282052;4209.10256404;4962.43589897;1973.84614906;137.82050414;-0.00000896;4136.02564082;4305.64102578;4169.10256397;4303.07692322;4270.51282059;4172.94871781;4172.05128192;4205.12820506
4204.23076917;4202.69230763;4334.35897457;4234.48717949;5090.76923258;1975.25640547;229.99999153;-0.00000896;4110.38461511;4332.94871816;4236.41025641;4301.02564117;4273.20512828;4173.07692294;4171.15384602;4205.12820506
4203.84615378;4202.82051275;4332.30769252;4234.48717949;4992.30769391;1974.74358495;137.82050414;-0.00000896;4136.53846133;4336.66666688;4237.82051282;4302.05128219;4301.79487194;4172.17948704;4171.79487166;4205.12820506
4204.35897429;4201.79487173;4303.20512835;4234.61538462;5089.35897617;1976.28204649;229.99999153;-0.00000896;4135.64102544;4336.53846175;4208.07692301;4299.61538476;4303.97435912;4172.43589730;4172.56410243;4205.12820506
4203.84615378;4202.17948711;4299.48717963;4234.35897436;5060.12820687;1976.28204649;137.82050414;-0.00000896;4136.02564082;4338.46153867;4175.12820499;4302.43589758;4271.66666674;4171.28205115;4172.05128192;4205.12820506
4204.23076917;4202.56410250;4266.66666674;4234.35897436;4960.38461692;1971.15384136;229.99999153;-0.00000896;4108.71794844;4335.76923098;4142.56410236;4274.74358982;4237.17948718;4174.10256397;4172.17948704;4205.12820506
4203.20512814;4203.84615378;4241.66666667;4234.48717949;5028.84615552;1943.33332847;8244.10257258;-0.00000896;4104.99999973;4366.66666695;4171.66666653;4300.64102578;4235.64102564;4173.71794858;4171.66666653;4205.12820506
4205.64102558;4202.17948711;4300.38461553;4235.00000000;5058.33333507;1970.38461059;8373.46154722;-0.00000896;4076.15384581;4366.41025669;4207.56410250;4301.53846168;4300.25641040;4171.79487166;4172.30769217;4205.12820506
4206.41025634;4201.66666660;4272.94871802;4234.23076923;5024.35897603;1974.61537982;5.38460642;-0.00000896;4075.25640991;4338.33333355;4204.23076917;4300.25641040;4267.82051289;4172.56410243;4171.28205115;4205.12820506
4208.07692301;4174.48717935;4270.64102571;4206.66666660;4956.41025794;1972.30768752;229.99999153;-0.00000896;4105.38461511;4368.71794900;4234.23076923;4273.33333341;4267.30769238;4172.43589730;4172.17948704;4205.12820506
4208.58974352;4173.20512807;4269.74358982;4205.12820506;5094.87179668;1970.38461059;229.99999153;-0.00000896;4108.84615357;4365.76923105;4139.10256390;4300.64102578;4234.10256411;4171.92307679;4172.05128192;4205.12820506
4206.92307686;4173.71794858;4267.17948725;4204.48717942;5026.53846321;2004.23076451;229.99999153;-0.00000896;4135.76923056;4335.25641047;4136.02564082;4273.46153853;4234.48717949;4171.66666653;4171.92307679;4205.12820506
4206.28205122;4173.58974345;4268.97435905;4205.51282045;4926.15384762;1976.92307213;229.99999153;-0.00000896;4139.23076903;4332.82051303;4202.56410250;4302.30769245;4237.94871795;4171.66666653;4171.92307679;4205.12820506
4206.15384609;4174.74358961;4303.33333348;4205.76923070;5087.56410437;2003.33332861;-0.00000896;-0.00000896;4140.51282031;4333.84615406;4208.46153840;4274.10256418;4206.66666660;4173.33333320;4171.92307679;4205.12820506
4205.76923070;4176.02564089;4237.69230770;4205.89743583;5056.66666841;1977.05127726;-0.00000896;-0.00000896;4142.17948697;4333.84615406;4208.46153840;4274.48717956;4239.35897436;4171.66666653;4170.76923063;4205.12820506
4203.46153840;4202.56410250;4239.10256411;4205.38461532;4894.35897575;2002.43589271;-0.00000896;-0.00000896;4143.07692287;4305.51282066;4171.66666653;4302.17948732;4203.07692301;4172.56410243;4171.79487166;4205.12820506
4203.20512814;4201.92307686;4237.30769231;4205.89743583;5127.56410444;1976.41025162;-0.00000896;-0.00000896;4141.92307672;4333.20512842;4172.56410243;4301.79487194;4234.87179488;4172.30769217;4172.05128192;4205.12820506
4203.84615378;4203.58974352;4241.66666667;4207.17948711;4995.00000160;2002.43589271;-0.00000896;-0.00000896;4139.74358954;4305.51282066;4169.48717935;4303.20512835;4236.53846154;4173.07692294;4172.05128192;4205.12820506
4202.69230763;4202.94871788;4239.35897436;4207.05128199;5091.79487361;1977.17948239;-0.00000896;-0.00000896;4138.84615364;4333.97435919;4143.46153826;4274.61538469;4268.33333341;4173.20512807;4171.66666653;4205.12820506
4205.51282045;4203.33333327;4234.35897436;4207.30769224;5090.76923258;2003.84614912;-0.00000896;-0.00000896;4138.07692287;4334.48717970;4137.56410236;4301.28205142;4206.66666660;4172.94871781;4171.92307679;4205.12820506
4206.53846147;4204.10256404;4208.97435891;4206.92307686;4826.41025766;2003.97435425;-0.00000896;-0.00000896;4138.97435877;4335.64102585;4170.12820499;4301.53846168;4201.79487173;4172.69230756;4171.53846140;4205.12820506
4207.05128199;4202.30769224;4207.69230763;4208.33333327;5122.94871983;1976.41025162;-0.00000896;-0.00000896;4139.61538441;4336.79487201;4169.61538448;4272.82051289;4204.99999993;4170.76923063;4171.41025628;4205.12820506
4207.94871788;4202.56410250;4271.28205136;4207.56410250;4996.28205288;2002.17948246;-0.00000896;-0.00000896;4140.25641005;4339.74358996;4174.87179474;4300.25641040;4235.00000000;4172.69230756;4171.79487166;4205.12820506
4207.30769224;4203.07692301;4269.10256418;4208.71794865;4929.35897582;2002.94871323;-0.00000896;-0.00000896;4142.82051262;4338.97435919;4142.43589723;4300.51282066;4202.69230763;4172.82051269;4173.71794858;4205.12820506
4206.92307686;4203.07692301;4238.33333334;4208.46153840;4961.79487333;2004.35896964;-0.00000896;-0.00000896;4141.41025621;4336.02564124;4136.15384595;4302.94871809;4173.71794858;4172.56410243;4171.66666653;4205.12820506
4206.66666660;4204.74358968;4238.20512821;4234.35897436;4895.00000139;2002.43589271;-0.00000896;-0.00000896;4143.07692287;4332.69230790;4142.82051262;4300.12820527;4203.97435891;4172.69230756;4173.58974345;4205.12820506
4206.92307686;4203.20512814;4267.17948725;4234.23076923;5123.20513009;1976.92307213;-0.00000896;-0.00000896;4168.84615371;4337.56410278;4171.02564089;4302.56410271;4235.89743590;4172.17948704;4172.05128192;4205.12820506
4205.89743583;4205.38461532;4271.41025648;4234.74358975;5026.28205295;2002.82050810;-0.00000896;-0.00000896;4175.76923063;4335.25641047;4174.23076910;4300.38461553;4239.61538462;4171.53846140;4171.66666653;4205.12820506
4204.99999993;4204.87179481;4302.30769245;4236.79487180;5120.64102752;1971.28204649;-0.00000896;-0.00000896;4142.17948697;4337.30769252;4203.07692301;4300.89743604;4206.53846147;4171.41025628;4171.92307679;4205.12820506
4204.48717942;4204.48717942;4241.92307693;4236.92307693;5054.74359148;1976.41025162;-0.00000896;-0.00000896;4138.07692287;4338.58974380;4169.35897422;4301.66666681;4237.05128206;4172.17948704;4171.53846140;4205.12820506
4206.41025634;4204.23076917;4304.61538476;4235.00000000;4996.79487340;2002.30768759;-0.00000896;-0.00000896;4139.23076903;4339.23076944;4203.20512814;4273.97435905;4239.87179488;4172.56410243;4174.48717935;4205.12820506
4206.15384609;4204.10256404;4300.38461553;4235.25641026;4993.97436058;1975.76922598;-0.00000896;-0.00000896;4139.23076903;4338.33333355;4173.20512807;4301.28205142;4240.64102564;4169.87179474;4171.79487166;4205.12820506
4206.92307686;4203.58974352;4307.05128219;4235.12820513;4996.79487340;1969.87179008;-0.00000896;-0.00000896;4139.48717928;4338.33333355;4203.97435891;4274.35897443;4240.51282052;4172.82051269;4171.92307679;4205.12820506
4205.89743583;4203.07692301;4241.02564103;4235.12820513;5055.00000174;1972.56409777;-0.00000896;-0.00000896;4140.25641005;4338.46153867;4136.66666646;4300.00000014;4206.92307686;4171.66666653;4172.05128192;4205.12820506
4205.38461532;4201.53846147;4268.97435905;4235.51282052;4960.00000153;1973.71794393;-0.00000896;-0.00000896;4137.56410236;4339.74358996;4201.28205122;4274.74358982;4240.89743590;4171.53846140;4172.05128192;4205.12820506
4205.12820506;4202.69230763;4299.61538476;4234.74358975;5061.28205302;1975.12820034;-0.00000896;-0.00000896;4137.43589723;4340.38461560;4201.28205122;4300.00000014;4234.61538462;4172.43589730;4172.17948704;4205.12820506
4206.79487173;4201.53846147;4300.00000014;4234.23076923;5026.66666834;1973.84614906;-0.00000896;-0.00000896;4138.33333313;4337.05128226;4169.87179474;4300.38461553;4236.66666667;4172.82051269;4171.79487166;4205.12820506
4205.64102558;4201.66666660;4273.46153853;4208.97435891;5054.87179661;1975.12820034;229.99999153;-0.00000896;4141.66666646;4338.46153867;4141.79487159;4273.58974366;4237.43589744;4171.53846140;4172.17948704;4205.12820506
4205.51282045;4202.30769224;4236.41025641;4207.82051275;5056.15384789;1974.99999521;8273.20513676;-0.00000896;4141.02564082;4334.10256431;4137.30769210;4274.48717956;4202.69230763;4171.53846140;4172.43589730;4205.12820506
4203.97435891;4202.05128199;4238.33333334;4208.84615378;4828.07692433;1975.12820034;8340.25641895;-0.00000896;4141.28205108;4338.33333355;4204.61538455;4300.76923091;4174.74358961;4171.79487166;4171.92307679;4205.12820506
4202.69230763;4201.92307686;4240.00000000;4208.84615378;5094.87179668;1977.05127726;98.84614509;-0.00000896;4142.17948697;4338.71794893;4201.41025634;4300.64102578;4239.23076923;4170.25641012;4171.92307679;4205.12820506
4203.71794865;4203.33333327;4336.92307714;4208.84615378;4860.12820645;1976.53845675;229.99999153;-0.00000896;4140.64102544;4337.56410278;4237.69230770;4301.79487194;4239.87179488;4173.33333320;4170.64102551;4205.12820506
4203.84615378;4201.28205122;4273.71794879;4208.46153840;4996.53846314;1975.51281572;229.99999153;-0.00000896;4141.15384595;4335.51282073;4204.61538455;4274.74358982;4268.58974366;4171.92307679;4172.05128192;4205.12820506
4203.84615378;4201.53846147;4303.07692322;4233.97435898;4956.92307846;1976.66666188;229.99999153;-0.00000896;4141.15384595;4336.92307714;4172.69230756;4301.66666681;4234.74358975;4172.30769217;4172.56410243;4205.12820506
4204.87179481;4201.15384609;4272.17948725;4207.94871788;5186.41025843;1976.79486700;229.99999153;-0.00000896;4141.41025621;4338.71794893;4204.61538455;4301.79487194;4272.43589751;4172.82051269;4172.17948704;4205.12820506
4203.20512814;4202.17948711;4332.94871816;4234.48717949;5056.66666841;1976.92307213;229.99999153;-0.00000896;4141.02564082;4333.20512842;4207.43589737;4302.82051296;4267.82051289;4171.41025628;4171.66666653;4205.12820506
4204.10256404;4203.20512814;4234.87179488;4208.58974352;4995.76923237;1975.89743111;229.99999153;-0.00000896;4141.79487159;4334.61538483;4175.38461525;4302.17948732;4238.20512821;4172.43589730;4171.66666653;4205.12820506
4203.71794865;4202.30769224;4240.51282052;4234.35897436;5092.69230950;1974.87179008;229.99999153;-0.00000896;4138.71794851;4335.89743611;4171.53846140;4301.79487194;4237.56410257;4170.38461525;4174.87179474;4205.12820506
4205.25641019;4202.94871788;4239.61538462;4208.20512814;5093.58974540;1976.92307213;229.99999153;-0.00000896;4138.97435877;4337.94871816;4170.12820499;4302.30769245;4235.64102564;4171.66666653;4171.92307679;4205.12820506
4204.87179481;4203.46153840;4267.56410264;4233.84615385;5054.61538636;2002.30768759;229.99999153;-0.00000896;4137.82051262;4333.97435919;4171.41025628;4301.28205142;4207.69230763;4170.76923063;4171.92307679;4205.12820506
4206.15384609;4202.69230763;4240.76923077;4234.74358975;4994.87179647;2003.07691836;229.99999153;-0.00000896;4138.46153826;4335.00000021;4172.43589730;4300.89743604;4204.61538455;4170.51282038;4171.92307679;4205.12820506
4205.12820506;4205.64102558;4270.64102571;4208.46153840;5059.23077097;2002.69230297;229.99999153;-0.00000896;4140.76923056;4336.28205149;4205.64102558;4299.87179501;4240.64102564;4172.17948704;4174.35897422;4205.12820506
4205.51282045;4205.89743583;4236.66666667;4208.58974352;5025.89743757;1975.64102085;229.99999153;-0.00000896;4139.87179467;4335.51282073;4142.30769210;4302.05128219;4175.64102551;4171.28205115;4170.38461525;4205.12820506
4206.15384609;4203.71794865;4208.46153840;4208.46153840;4995.00000160;1974.48717470;229.99999153;-0.00000896;4142.56410236;4339.48717970;4168.97435884;4299.74358989;4202.56410250;4171.41025628;4171.92307679;4205.12820506
4206.66666660;4203.84615378;4268.33333341;4208.84615378;5062.17948892;1974.99999521;229.99999153;-0.00000896;4141.92307672;4365.12820541;4173.84615371;4300.12820527;4208.20512814;4173.07692294;4173.20512807;4205.12820506
4204.99999993;4203.97435891;4305.89743604;4208.84615378;4994.10256570;2002.43589271;229.99999153;-0.00000896;4139.48717928;4336.41025662;4174.10256397;4302.56410271;4237.94871795;4171.15384602;4171.92307679;4205.12820506
4205.64102558;4204.23076917;4271.79487187;4234.35897436;5057.17948892;1975.12820034;229.99999153;-0.00000896;4140.51282031;4338.46153867;4171.92307679;4302.69230784;4240.51282052;4171.02564089;4172.05128192;4205.12820506
4206.28205122;4203.33333327;4270.00000007;4208.71794865;5061.41025815;1977.05127726;229.99999153;-0.00000896;4141.15384595;4339.61538483;4174.99999986;4303.20512835;4240.64102564;4171.41025628;4172.05128192;4205.12820506
4205.76923070;4204.23076917;4300.12820527;4208.71794865;5092.56410437;1974.99999521;229.99999153;-0.00000896;4169.10256397;4334.35897457;4204.23076917;4301.92307707;4235.38461539;4171.66666653;4172.69230756;4205.12820506
4205.64102558;4202.94871788;4303.84615399;4208.20512814;5027.94871962;1971.92307213;229.99999153;-0.00000896;4169.74358961;4335.64102585;4202.43589737;4300.89743604;4233.84615385;4172.43589730;4172.17948704;4205.12820506
4204.48717942;4202.43589737;4300.38461553;4209.10256404;5055.76923251;1972.82050803;229.99999153;-0.00000896;4143.20512800;4340.00000021;4205.38461532;4300.89743604;4269.35897443;4170.64102551;4172.43589730;4205.12820506
4204.48717942;4202.94871788;4274.61538469;4234.10256411;5026.41025808;1975.89743111;229.99999153;-0.00000896;4141.02564082;4334.23076944;4174.87179474;4302.05128219;4206.28205122;4172.17948704;4172.43589730;4205.12820506
4205.12820506;4202.69230763;4302.82051296;4208.07692301;4891.92307832;1975.51281572;229.99999153;-0.00000896;4141.15384595;4367.05128233;4206.41025634;4299.48717963;4269.23076930;4171.79487166;4170.38461525;4205.12820506
4206.53846147;4202.69230763;4268.58974366;4209.10256404;5125.51282239;1976.92307213;229.99999153;-0.00000896;4140.25641005;4336.41025662;4171.41025628;4300.00000014;4204.48717942;4170.12820499;4173.97435884;4205.12820506
4206.66666660;4203.07692301;4304.74358989;4208.58974352;5095.00000181;2004.35896964;229.99999153;-0.00000896;4139.87179467;4335.64102585;4233.84615385;4273.58974366;4269.10256418;4171.79487166;4172.56410243;4205.12820506
4207.56410250;4203.97435891;4304.87179501;4234.23076923;4862.82051414;1977.30768752;229.99999153;-0.00000896;4141.41025621;4337.05128226;4207.82051275;4301.92307707;4201.66666660;4171.28205115;4170.76923063;4205.12820506
4208.71794865;4204.35897429;4302.30769245;4208.84615378;5026.92307859;2003.84614912;229.99999153;-0.00000896;4140.76923056;4365.51282079;4237.43589744;4300.89743604;4238.71794872;4170.64102551;4171.79487166;4205.12820506
4208.71794865;4206.41025634;4271.15384623;4235.00000000;5061.66666841;2002.82050810;229.99999153;-0.00000896;4142.17948697;4340.12820534;4173.97435884;4300.89743604;4240.51282052;4171.02564089;4171.02564089;4205.12820506
4233.84615385;4205.38461532;4333.20512842;4233.97435898;5023.58974526;1975.38461059;229.99999153;-0.00000896;4143.46153826;4340.38461560;4206.15384609;4300.00000014;4271.53846161;4173.58974345;4172.69230756;4237.94871795
4207.94871788;4206.15384609;4303.33333348;4236.02564103;4992.17948878;1974.99999521;229.99999153;-0.00000896;4143.20512800;4367.43589772;4241.02564103;4301.41025655;4299.61538476;4171.02564089;4172.56410243;4205.12820506
4207.17948711;4205.25641019;4332.94871816;4234.48717949;5126.15384803;2002.17948246;229.99999153;-0.00000896;4169.10256397;4368.33333362;4234.74358975;4274.23076930;4301.53846168;4172.05128192;4172.69230756;4205.12820506
4206.66666660;4204.10256404;4269.61538469;4233.84615385;5123.33333521;1973.07691829;229.99999153;-0.00000896;4168.58974345;4366.92307720;4172.56410243;4272.30769238;4241.79487180;4172.43589730;4172.69230756;4205.12820506
4204.99999993;4203.58974352;4273.20512828;4235.25641026;4923.33333480;1971.02563623;229.99999153;-0.00000896;4143.07692287;4368.07692336;4208.84615378;4300.89743604;4208.46153840;4171.66666653;4172.43589730;4205.12820506
4204.10256404;4204.10256404;4300.76923091;4235.89743590;5060.64102738;1974.99999521;229.99999153;-0.00000896;4139.87179467;4368.97435926;4203.97435891;4273.84615392;4270.38461546;4171.66666653;4172.94871781;4205.12820506
4205.64102558;4201.28205122;4335.64102585;4235.51282052;4992.56410417;1973.97435418;8274.23077778;-0.00000896;4139.99999980;4368.58974387;4208.20512814;4302.17948732;4267.43589751;4174.74358961;4170.38461525;4205.12820506
4205.25641019;4202.05128199;4336.53846175;4234.48717949;5061.92307866;1976.15384136;132.94870927;-0.00000896;4139.48717928;4368.07692336;4174.35897422;4300.89743604;4300.25641040;4173.20512807;4172.30769217;4205.12820506
4205.25641019;4201.79487173;4302.17948732;4208.97435891;4930.64102710;1973.97435418;229.99999153;-0.00000896;4140.12820492;4367.94871823;4206.28205122;4300.25641040;4270.00000007;4174.35897422;4172.82051269;4205.12820506
4205.38461532;4201.92307686;4302.43589758;4235.12820513;5091.66666848;1971.66666188;132.94870927;-0.00000896;4139.74358954;4338.84615406;4171.02564089;4299.61538476;4241.15384616;4171.28205115;4172.56410243;4205.12820506
4204.74358968;4201.28205122;4306.02564117;4236.41025641;5061.79487354;1971.02563623;-0.00000896;-0.00000896;4138.58974339;4367.05128233;4239.61538462;4300.25641040;4300.25641040;4170.76923063;4174.10256397;4205.12820506
4204.99999993;4202.69230763;4304.74358989;4235.76923077;5026.15384783;1975.64102085;-0.00000896;-0.00000896;4136.53846133;4368.33333362;4241.66666667;4299.87179501;4306.02564117;4171.53846140;4172.30769217;4205.12820506
4206.66666660;4202.17948711;4301.79487194;4235.89743590;5055.00000174;2002.56409784;-0.00000896;-0.00000896;4137.30769210;4339.61538483;4175.89743576;4301.41025655;4237.05128206;4172.94871781;4172.05128192;4205.12820506
4208.46153840;4201.15384609;4267.82051289;4233.97435898;5127.94871983;1974.87179008;-0.00000896;-0.00000896;4137.69230749;4366.28205156;4170.25641012;4274.35897443;4236.53846154;4170.64102551;4172.17948704;4205.12820506
4207.56410250;4202.43589737;4334.10256431;4208.97435891;4991.28205288;1976.28204649;-0.00000896;-0.00000896;4141.15384595;4367.94871823;4202.94871788;4302.30769245;4240.76923077;4171.15384602;4172.69230756;4205.12820506
4207.05128199;4202.43589737;4271.02564110;4209.10256404;4989.87179647;2002.05127733;-0.00000896;-0.00000896;4140.51282031;4337.43589765;4174.23076910;4274.10256418;4240.12820513;4171.66666653;4172.30769217;4205.12820506
4207.56410250;4203.07692301;4302.30769245;4207.43589737;4990.12820673;2002.05127733;-0.00000896;-0.00000896;4142.69230749;4369.61538490;4206.79487173;4274.61538469;4241.92307693;4172.30769217;4172.56410243;4205.12820506
4206.02564096;4203.84615378;4271.53846161;4208.46153840;5191.53846356;2002.43589271;-0.00000896;-0.00000896;4168.33333320;4365.64102592;4206.02564096;4273.97435905;4241.02564103;4172.05128192;4171.66666653;4205.12820506
4206.41025634;4203.46153840;4273.58974366;4208.46153840;4961.41025794;2002.05127733;-0.00000896;-0.00000896;4168.58974345;4366.15384644;4203.33333327;4300.25641040;4270.89743597;4173.46153833;4172.56410243;4205.12820506
4206.28205122;4203.71794865;4304.35897450;4208.58974352;5088.71795053;1974.99999521;-0.00000896;-0.00000896;4169.87179474;4366.02564131;4237.17948718;4299.48717963;4267.05128212;4172.17948704;4172.30769217;4205.12820506
4205.12820506;4203.20512814;4332.82051303;4208.33333327;5062.30769405;2003.71794400;-0.00000896;-0.00000896;4170.38461525;4367.94871823;4240.00000000;4302.43589758;4300.51282066;4171.53846140;4172.69230756;4205.12820506
4204.99999993;4201.53846147;4302.56410271;4208.84615378;5059.48718123;2003.07691836;-0.00000896;-0.00000896;4168.20512807;4339.87179508;4203.07692301;4301.66666681;4271.15384623;4171.15384602;4172.17948704;4205.12820506
4205.12820506;4202.05128199;4269.10256418;4208.84615378;5022.43589911;1977.05127726;-0.00000896;-0.00000896;4168.58974345;4366.53846182;4201.28205122;4301.53846168;4238.20512821;4171.02564089;4172.56410243;4205.12820506
4204.74358968;4203.20512814;4272.17948725;4235.51282052;4931.15384762;2003.07691836;-0.00000896;-0.00000896;4168.58974345;4368.20512849;4208.71794865;4300.00000014;4208.71794865;4170.25641012;4172.56410243;4205.12820506
4205.64102558;4202.43589737;4272.30769238;4209.10256404;4993.84615545;2003.46153374;-0.00000896;-0.00000896;4142.43589723;4366.53846182;4237.82051282;4303.07692322;4236.02564103;4171.28205115;4172.56410243;4205.12820506
4206.41025634;4202.43589737;4301.41025655;4233.84615385;5059.35897610;1975.25640547;-0.00000896;-0.00000896;4141.02564082;4366.28205156;4238.84615385;4304.35897450;4272.17948725;4172.69230756;4172.17948704;4205.12820506
4205.64102558;4203.33333327;4274.10256418;4235.00000000;5088.46154027;1975.76922598;-0.00000896;-0.00000896;4143.20512800;4372.43589772;4173.46153833;4273.97435905;4207.56410250;4171.28205115;4172.30769217;4205.12820506
4205.76923070;4203.20512814;4272.43589751;4235.25641026;5087.94871976;2003.20512348;-0.00000896;-0.00000896;4140.64102544;4366.92307720;4169.48717935;4301.28205142;4240.12820513;4171.02564089;4172.56410243;4205.12820506
4206.15384609;4203.07692301;4305.00000014;4236.41025641;4961.28205281;1971.92307213;-0.00000896;-0.00000896;4141.53846133;4366.02564131;4207.30769224;4299.87179501;4209.10256404;4171.66666653;4171.53846140;4205.12820506
4206.28205122;4202.56410250;4302.43589758;4235.25641026;4930.51282198;1975.64102085;-0.00000896;-0.00000896;4140.64102544;4370.00000028;4238.07692308;4300.00000014;4267.43589751;4172.82051269;4172.69230756;4205.12820506
4206.15384609;4202.56410250;4271.92307700;4234.74358975;4930.12820659;2002.69230297;-0.00000896;-0.00000896;4141.02564082;4369.10256438;4206.53846147;4300.76923091;4237.69230770;4171.79487166;4172.30769217;4205.12820506
4206.79487173;4202.56410250;4300.64102578;4234.74358975;5094.10256591;1974.74358495;-0.00000896;-0.00000896;4140.64102544;4370.64102592;4237.69230770;4299.48717963;4234.35897436;4170.38461525;4172.69230756;4205.12820506
4205.51282045;4203.20512814;4271.53846161;4235.38461539;5088.84615566;1971.28204649;-0.00000896;-0.00000896;4142.82051262;4370.64102592;4205.25641019;4302.30769245;4208.97435891;4172.56410243;4172.69230756;4205.12820506
4205.64102558;4201.28205122;4303.97435912;4235.76923077;5153.20513015;2002.17948246;-0.00000896;-0.00000896;4140.76923056;4371.53846182;4235.38461539;4301.28205142;4241.53846154;4171.53846140;4172.69230756;4205.12820506
4206.66666660;4201.41025634;4369.74359003;4236.02564103;5058.33333507;1976.41025162;229.99999153;-0.00000896;4141.02564082;4369.10256438;4241.15384616;4273.84615392;4301.66666681;4171.92307679;4173.07692294;4205.12820506
4205.89743583;4201.41025634;4307.17948732;4235.00000000;5054.35897610;1976.15384136;229.99999153;-0.00000896;4142.05128185;4340.25641047;4208.20512814;4301.15384630;4267.56410264;4172.30769217;4172.82051269;4205.12820506
4205.51282045;4201.15384609;4271.66666674;4234.87179488;4928.33333480;1973.71794393;229.99999153;-0.00000896;4169.10256397;4367.43589772;4202.43589737;4300.64102578;4208.71794865;4171.15384602;4172.69230756;4205.12820506
4204.74358968;4201.41025634;4269.87179495;4234.87179488;4993.97436058;1973.84614906;229.99999153;-0.00000896;4169.48717935;4366.53846182;4206.41025634;4303.33333348;4208.20512814;4171.02564089;4172.82051269;4205.12820506
4203.71794865;4201.92307686;4274.10256418;4235.38461539;5087.43589925;1973.97435418;8272.69231624;-0.00000896;4143.33333313;4365.76923105;4207.43589737;4301.41025655;4241.92307693;4171.41025628;4173.07692294;4205.12820506
4202.69230763;4201.15384609;4274.23076930;4236.02564103;5125.51282239;1974.23076444;164.74358113;-0.00000896;4141.02564082;4367.17948746;4239.35897436;4273.33333341;4270.12820520;4171.15384602;4172.56410243;4205.12820506
4204.10256404;4201.66666660;4305.51282066;4234.61538462;5059.10256584;2003.20512348;229.99999153;-0.00000896;4137.82051262;4366.41025669;4234.35897436;4301.79487194;4238.71794872;4170.64102551;4172.43589730;4205.12820506
4203.33333327;4203.07692301;4273.46153853;4235.12820513;5157.43589939;2002.17948246;164.74358113;-0.00000896;4139.35897415;4338.97435919;4206.79487173;4300.00000014;4240.51282052;4170.76923063;4171.79487166;4205.12820506
4204.87179481;4202.82051275;4271.66666674;4235.00000000;4961.53846307;1975.51281572;229.99999153;-0.00000896;4139.61538441;4372.05128233;4172.82051269;4301.66666681;4176.15384602;4171.92307679;4172.17948704;4205.12820506
4203.97435891;4203.58974352;4301.41025655;4235.64102564;4925.89743736;1976.02563623;164.74358113;-0.00000896;4138.46153826;4367.56410285;4204.61538455;4301.15384630;4240.00000000;4171.28205115;4172.43589730;4205.12820506
4203.58974352;4204.61538455;4369.35897464;4235.00000000;5088.58974540;1973.58973880;229.99999153;-0.00000896;4139.74358954;4367.05128233;4241.53846154;4301.02564117;4268.58974366;4170.51282038;4172.17948704;4205.12820506
4205.25641019;4203.46153840;4273.58974366;4236.66666667;5023.46154013;1973.84614906;164.74358113;-0.00000896;4138.58974339;4369.74359003;4203.33333327;4300.25641040;4241.41025641;4171.02564089;4174.23076910;4205.12820506
4206.02564096;4202.43589737;4240.25641026;4235.38461539;5025.12820680;2003.33332861;229.99999153;-0.00000896;4140.25641005;4368.46153874;4170.25641012;4300.51282066;4205.51282045;4170.25641012;4172.69230756;4205.12820506
4206.79487173;4201.28205122;4305.38461553;4235.38461539;5055.00000174;1975.25640547;164.74358113;-0.00000896;4139.99999980;4337.43589765;4204.87179481;4300.00000014;4239.23076923;4170.51282038;4172.43589730;4205.12820506
4206.28205122;4201.28205122;4306.28205142;4235.76923077;4923.46153992;1974.99999521;229.99999153;-0.00000896;4140.76923056;4367.82051310;4237.30769231;4300.00000014;4241.66666667;4171.53846140;4172.43589730;4205.12820506
4206.66666660;4201.66666660;4266.79487187;4235.00000000;4926.28205275;1974.99999521;164.74358113;-0.00000896;4141.79487159;4365.38461567;4143.46153826;4303.33333348;4235.12820513;4170.38461525;4172.30769217;4205.12820506
4204.61538455;4201.66666660;4274.61538469;4235.64102564;5160.00000195;1975.76922598;229.99999153;-0.00000896;4141.92307672;4340.12820534;4203.33333327;4302.69230784;4239.35897436;4171.41025628;4172.56410243;4205.12820506
4204.74358968;4201.66666660;4272.43589751;4235.12820513;5027.43589911;2002.43589271;164.74358113;-0.00000896;4139.48717928;4368.58974387;4202.43589737;4300.12820527;4269.87179495;4171.79487166;4172.69230756;4205.12820506
4203.58974352;4202.69230763;4273.33333341;4235.25641026;5025.25641193;2002.56409784;229.99999153;-0.00000896;4140.12820492;4365.12820541;4173.71794858;4273.84615392;4235.64102564;4173.33333320;4171.02564089;4205.12820506
4205.38461532;4201.15384609;4304.48717963;4234.61538462;5058.58974533;2003.58973887;164.74358113;-0.00000896;4139.10256390;4366.79487208;4233.97435898;4301.15384630;4270.89743597;4172.17948704;4172.82051269;4205.12820506
4205.12820506;4202.05128199;4273.20512828;4234.23076923;4928.07692454;1975.76922598;229.99999153;-0.00000896;4139.87179467;4365.76923105;4170.25641012;4299.87179501;4234.74358975;4171.66666653;4172.56410243;4205.12820506
4204.74358968;4201.28205122;4270.00000007;4235.64102564;4989.61538622;1976.15384136;164.74358113;-0.00000896;4139.99999980;4371.15384644;4172.30769217;4303.07692322;4234.87179488;4172.05128192;4172.43589730;4205.12820506
4203.84615378;4202.30769224;4271.41025648;4236.15384616;4988.71795032;1976.41025162;229.99999153;-0.00000896;4137.56410236;4366.92307720;4168.71794858;4301.41025655;4237.17948718;4171.41025628;4170.25641012;4205.12820506
4206.41025634;4201.15384609;4302.69230784;4235.76923077;4960.64102717;1974.23076444;164.74358113;-0.00000896;4137.05128185;4365.12820541;4202.69230763;4302.17948732;4237.94871795;4170.89743576;4172.30769217;4205.12820506
4206.66666660;4201.79487173;4299.61538476;4235.38461539;5089.23077104;1975.51281572;229.99999153;-0.00000896;4138.71794851;4339.35897457;4234.87179488;4303.07692322;4241.28205129;4172.30769217;4171.53846140;4205.12820506
4206.15384609;4202.56410250;4303.97435912;4234.23076923;5027.94871962;1975.12820034;164.74358113;-0.00000896;4139.48717928;4369.10256438;4175.38461525;4301.02564117;4208.20512814;4172.82051269;4172.43589730;4205.12820506
4206.41025634;4203.33333327;4306.02564117;4208.84615378;5025.76923244;2002.17948246;229.99999153;-0.00000896;4140.76923056;4368.97435926;4203.20512814;4303.58974373;4241.92307693;4172.82051269;4170.76923063;4205.12820506
4204.99999993;4202.82051275;4302.56410271;4234.48717949;4924.74359121;1974.48717470;164.74358113;-0.00000896;4143.07692287;4339.87179508;4203.71794865;4300.89743604;4237.69230770;4171.15384602;4172.17948704;4205.12820506
4205.12820506;4202.69230763;4306.66666681;4233.84615385;5061.15384789;1974.74358495;229.99999153;-0.00000896;4142.56410236;4367.05128233;4204.99999993;4299.87179501;4271.53846161;4172.17948704;4172.30769217;4205.12820506
4204.10256404;4202.17948711;4274.10256418;4235.51282052;4958.71795025;1975.89743111;164.74358113;-0.00000896;4141.02564082;4366.66666695;4204.99999993;4273.97435905;4240.38461539;4170.89743576;4169.87179474;4205.12820506
4204.61538455;4201.66666660;4269.10256418;4233.84615385;5091.02564284;1974.10255931;229.99999153;-0.00000896;4141.66666646;4365.51282079;4174.10256397;4302.82051296;4207.05128199;4172.43589730;4172.56410243;4205.12820506
4204.35897429;4201.66666660;4270.64102571;4234.35897436;4898.33333473;1975.76922598;164.74358113;-0.00000896;4141.79487159;4340.25641047;4140.76923056;4274.23076930;4207.56410250;4171.41025628;4172.56410243;4205.12820506
4204.61538455;4201.79487173;4274.74358982;4235.25641026;5218.97436106;1974.99999521;229.99999153;-0.00000896;4141.53846133;4368.33333362;4206.92307686;4303.20512835;4236.41025641;4169.87179474;4171.66666653;4205.12820506
4203.58974352;4201.15384609;4240.76923077;4236.02564103;4988.97436058;2003.84614912;8245.00000848;-0.00000896;4138.71794851;4338.07692329;4169.35897422;4304.23076937;4208.46153840;4172.17948704;4172.17948704;4205.12820506
4203.97435891;4201.92307686;4300.25641040;4234.87179488;4991.28205288;1975.76922598;8338.07693177;-0.00000896;4139.23076903;4338.71794893;4203.71794865;4301.66666681;4233.84615385;4171.53846140;4172.43589730;4205.12820506
4203.84615378;4202.43589737;4238.33333334;4235.51282052;5026.53846321;1974.23076444;33.84614496;-0.00000896;4139.35897415;4366.15384644;4168.20512807;4300.38461553;4204.10256404;4171.02564089;4173.20512807;4205.12820506
4204.48717942;4202.17948711;4235.38461539;4235.25641026;4928.07692454;2002.43589271;229.99999153;-0.00000896;4138.07692287;4366.28205156;4169.48717935;4301.28205142;4205.25641019;4169.23076910;4172.56410243;4205.12820506
4204.61538455;4202.05128199;4307.56410271;4234.48717949;5090.00000181;2002.30768759;229.99999153;-0.00000896;4138.20512800;4369.61538490;4202.94871788;4303.07692322;4237.17948718;4171.79487166;4172.17948704;4205.12820506
4204.35897429;4201.66666660;4335.64102585;4235.64102564;5025.64102731;1977.05127726;229.99999153;-0.00000896;4138.71794851;4366.15384644;4204.48717942;4301.79487194;4271.15384623;4170.64102551;4172.69230756;4205.12820506
4205.38461532;4201.79487173;4300.51282066;4235.00000000;4996.79487340;1975.76922598;229.99999153;-0.00000896;4138.58974339;4338.58974380;4203.07692301;4302.94871809;4236.66666667;4170.89743576;4172.30769217;4205.12820506
4205.12820506;4201.79487173;4241.53846154;4236.15384616;4924.87179633;1973.07691829;-0.00000896;-0.00000896;4139.35897415;4340.12820534;4174.74358961;4300.38461553;4206.53846147;4170.76923063;4175.12820499;4205.12820506
4204.10256404;4201.92307686;4272.94871802;4235.38461539;5024.61538629;1975.38461059;-0.00000896;-0.00000896;4139.61538441;4369.35897464;4172.82051269;4301.02564117;4237.17948718;4173.33333320;4172.56410243;4205.12820506
4206.66666660;4201.28205122;4300.51282066;4236.15384616;5025.38461706;1975.12820034;-0.00000896;-0.00000896;4139.74358954;4340.38461560;4176.15384602;4302.43589758;4234.87179488;4172.05128192;4172.69230756;4205.12820506
4206.02564096;4202.94871788;4334.23076944;4236.15384616;5027.43589911;2002.05127733;-0.00000896;-0.00000896;4138.58974339;4339.23076944;4205.25641019;4299.74358989;4240.38461539;4171.66666653;4172.56410243;4205.12820506
4205.51282045;4202.69230763;4269.87179495;4235.89743590;4992.05128365;1974.10255931;-0.00000896;-0.00000896;4138.97435877;4365.25641054;4172.43589730;4300.12820527;4207.94871788;4172.56410243;4172.43589730;4205.12820506
4206.02564096;4201.02564096;4273.33333341;4235.51282052;4994.48718109;1976.02563623;-0.00000896;-0.00000896;4138.33333313;4371.66666695;4203.20512814;4304.35897450;4206.02564096;4171.92307679;4173.33333320;4205.12820506
4205.51282045;4202.17948711;4267.05128212;4236.28205129;4957.05128358;2003.84614912;-0.00000896;-0.00000896;4138.97435877;4365.38461567;4172.94871781;4300.76923091;4203.84615378;4171.02564089;4172.43589730;4205.12820506
4204.74358968;4202.82051275;4273.71794879;4234.87179488;4993.58974519;2003.20512348;-0.00000896;-0.00000896;4138.20512800;4339.74358996;4174.48717935;4300.25641040;4175.38461525;4172.56410243;4172.94871781;4205.12820506
4204.99999993;4202.56410250;4272.69230777;4234.74358975;5060.89743764;1972.94871316;-0.00000896;-0.00000896;4138.20512800;4370.51282079;4176.15384602;4301.66666681;4266.79487187;4171.53846140;4173.07692294;4205.12820506
4204.48717942;4202.56410250;4274.74358982;4233.84615385;5022.56410424;1976.28204649;-0.00000896;-0.00000896;4137.43589723;4365.89743618;4175.64102551;4299.61538476;4207.56410250;4172.43589730;4172.82051269;4205.12820506
4204.61538455;4202.82051275;4236.41025641;4208.71794865;5025.25641193;1977.05127726;-0.00000896;-0.00000896;4136.92307672;4338.07692329;4143.46153826;4300.76923091;4234.74358975;4173.46153833;4172.30769217;4205.12820506
4204.74358968;4202.17948711;4304.10256425;4234.35897436;5192.82051484;1974.61537982;-0.00000896;-0.00000896;4138.71794851;4367.17948746;4235.25641026;4302.82051296;4236.92307693;4172.69230756;4172.69230756;4205.12820506
4204.99999993;4202.43589737;4332.94871816;4233.84615385;4989.74359135;1977.17948239;-0.00000896;-0.00000896;4142.05128185;4371.15384644;4237.05128206;4299.74358989;4240.38461539;4170.25641012;4172.56410243;4205.12820506
4204.99999993;4202.30769224;4270.51282059;4233.84615385;4959.23077076;1977.17948239;-0.00000896;-0.00000896;4141.15384595;4366.92307720;4169.23076910;4302.17948732;4173.33333320;4173.71794858;4172.69230756;4205.12820506
4204.74358968;4202.05128199;4238.97435898;4233.97435898;5027.94871962;1974.61537982;-0.00000896;-0.00000896;4142.56410236;4338.97435919;4170.38461525;4301.92307707;4205.12820506;4171.28205115;4172.56410243;4205.12820506
4204.23076917;4202.30769224;4273.33333341;4236.02564103;4995.12820673;1975.38461059;-0.00000896;-0.00000896;4139.87179467;4340.25641047;4142.82051262;4274.61538469;4201.41025634;4172.30769217;4172.30769217;4205.12820506
4204.48717942;4202.17948711;4305.12820527;4236.15384616;4994.23077083;1976.79486700;-0.00000896;-0.00000896;4138.46153826;4366.41025669;4208.07692301;4300.25641040;4241.15384616;4172.17948704;4172.43589730;4205.12820506
4203.58974352;4204.10256404;4365.89743618;4236.66666667;4929.35897582;1977.30768752;-0.00000896;-0.00000896;4136.02564082;4366.41025669;4174.87179474;4301.41025655;4235.64102564;4170.89743576;4174.23076910;4205.12820506
4205.12820506;4203.46153840;4333.97435919;4234.87179488;5092.17948899;1976.15384136;-0.00000896;-0.00000896;4138.07692287;4337.30769252;4203.84615378;4300.76923091;4238.20512821;4172.30769217;4172.56410243;4205.12820506
4205.51282045;4203.33333327;4272.43589751;4235.89743590;4992.69230929;1975.64102085;-0.00000896;-0.00000896;4137.56410236;4340.12820534;4168.97435884;4273.71794879;4172.82051269;4171.92307679;4172.69230756;4205.12820506
4204.48717942;4203.07692301;4273.46153853;4235.89743590;4963.84615538;1973.97435418;-0.00000896;-0.00000896;4137.17948697;4365.12820541;4169.99999986;4274.74358982;4234.87179488;4170.64102551;4172.30769217;4205.12820506
4206.28205122;4201.79487173;4274.61538469;4236.02564103;4993.58974519;1975.38461059;-0.00000896;-0.00000896;4136.53846133;4365.64102592;4203.58974352;4302.17948732;4206.53846147;4172.82051269;4170.38461525;4205.12820506
4205.12820506;4202.69230763;4304.10256425;4236.41025641;4956.02564256;1974.10255931;-0.00000896;-0.00000896;4136.92307672;4370.89743618;4168.71794858;4300.25641040;4201.53846147;4171.53846140;4172.43589730;4205.12820506
4205.12820506;4202.56410250;4239.48717949;4234.87179488;5095.12820694;1977.17948239;-0.00000896;-0.00000896;4136.66666646;4370.12820541;4171.79487166;4300.51282066;4204.61538455;4169.23076910;4172.94871781;4205.12820506
4206.02564096;4201.79487173;4269.61538469;4235.76923077;4799.48718067;2004.10255938;229.99999153;-0.00000896;4137.17948697;4366.41025669;4170.25641012;4300.76923091;4171.66666653;4172.43589730;4171.79487166;4205.12820506
4205.51282045;4201.79487173;4272.82051289;4234.74358975;5191.15384817;1975.64102085;8272.69231624;-0.00000896;4137.56410236;4339.74358996;4176.15384602;4299.61538476;4236.79487180;4170.51282038;4172.56410243;4205.12820506
4204.99999993;4202.17948711;4300.51282066;4235.51282052;4891.02564242;1974.87179008;8275.12821368;-0.00000896;4138.07692287;4339.61538483;4171.79487166;4300.51282066;4201.28205122;4170.89743576;4174.99999986;4205.12820506
4204.35897429;4202.05128199;4273.71794879;4234.87179488;5091.53846335;1975.64102085;-0.00000896;-0.00000896;4138.46153826;4339.10256431;4169.99999986;4301.15384630;4238.33333334;4173.84615371;4172.69230756;4205.12820506
4204.35897429;4202.82051275;4241.02564103;4235.76923077;4929.74359121;2002.43589271;229.99999153;-0.00000896;4135.38461518;4340.12820534;4143.33333313;4304.48717963;4206.02564096;4171.92307679;4172.43589730;4205.12820506
4204.48717942;4202.30769224;4271.28205136;4234.61538462;5153.71795067;1976.66666188;229.99999153;-0.00000896;4137.05128185;4366.92307720;4170.25641012;4300.64102578;4208.97435891;4171.53846140;4172.69230756;4205.12820506
4205.51282045;4203.07692301;4332.94871816;4234.87179488;5022.56410424;2003.97435425;229.99999153;-0.00000896;4137.43589723;4367.94871823;4204.48717942;4303.07692322;4208.46153840;4172.43589730;4172.17948704;4205.12820506
4203.97435891;4203.07692301;4334.48717970;4235.64102564;4992.82051442;1974.99999521;229.99999153;-0.00000896;4137.82051262;4366.28205156;4205.25641019;4301.41025655;4234.61538462;4171.92307679;4172.56410243;4205.12820506
4204.99999993;4202.43589737;4306.41025655;4234.48717949;5021.66666834;1974.87179008;229.99999153;-0.00000896;4137.56410236;4340.00000021;4203.84615378;4299.48717963;4237.94871795;4172.17948704;4171.79487166;4205.12820506
4204.74358968;4202.30769224;4266.79487187;4236.28205129;5026.79487347;1973.58973880;229.99999153;-0.00000896;4136.02564082;4339.74358996;4138.71794851;4301.41025655;4172.56410243;4171.92307679;4172.30769217;4205.12820506
4204.48717942;4202.30769224;4274.74358982;4235.51282052;5188.97436099;1973.71794393;229.99999153;-0.00000896;4136.02564082;4365.38461567;4173.58974345;4300.51282066;4204.61538455;4173.20512807;4172.69230756;4205.12820506
4204.87179481;4203.33333327;4302.69230784;4235.76923077;4962.56410410;2002.69230297;229.99999153;-0.00000896;4136.41025621;4366.92307720;4201.41025634;4300.00000014;4204.48717942;4172.94871781;4172.05128192;4205.12820506
4204.61538455;4203.07692301;4333.84615406;4235.12820513;4961.79487333;1976.92307213;229.99999153;-0.00000896;4137.05128185;4337.56410278;4235.89743590;4300.76923091;4234.35897436;4171.41025628;4172.69230756;4205.12820506
4205.25641019;4203.07692301;4273.71794879;4234.87179488;4989.23077083;1976.02563623;229.99999153;-0.00000896;4139.10256390;4365.89743618;4175.12820499;4274.23076930;4205.76923070;4170.51282038;4174.23076910;4205.12820506
4205.25641019;4202.17948711;4274.35897443;4234.61538462;4930.64102710;1975.64102085;229.99999153;-0.00000896;4138.33333313;4368.84615413;4172.05128192;4303.33333348;4207.43589737;4171.02564089;4172.43589730;4205.12820506
4204.87179481;4201.79487173;4300.51282066;4235.38461539;5091.92307873;1976.15384136;229.99999153;-0.00000896;4137.17948697;4367.69230797;4202.82051275;4302.69230784;4208.20512814;4172.82051269;4172.17948704;4205.12820506
4203.71794865;4201.28205122;4368.84615413;4235.00000000;5090.76923258;1976.53845675;229.99999153;-0.00000896;4136.53846133;4365.12820541;4237.69230770;4301.79487194;4240.51282052;4171.79487166;4172.82051269;4205.12820506
4204.23076917;4202.05128199;4305.00000014;4234.74358975;5026.41025808;1976.02563623;229.99999153;-0.00000896;4136.41025621;4340.38461560;4201.41025634;4273.97435905;4208.71794865;4173.46153833;4172.56410243;4205.12820506
4203.97435891;4201.79487173;4270.64102571;4235.00000000;5022.17948885;1975.12820034;229.99999153;-0.00000896;4137.05128185;4373.20512849;4169.48717935;4274.23076930;4176.28205115;4171.28205115;4172.43589730;4205.12820506
4204.10256404;4176.02564089;4238.46153847;4235.12820513;4956.28205281;2002.69230297;229.99999153;-0.00000896;4136.66666646;4365.25641054;4170.89743576;4274.74358982;4175.25641012;4172.82051269;4172.43589730;4205.12820506
4202.82051275;4201.53846147;4269.23076930;4235.51282052;5189.10256612;1975.25640547;229.99999153;-0.00000896;4136.92307672;4339.61538483;4169.99999986;4301.79487194;4236.28205129;4171.15384602;4172.56410243;4205.12820506
4203.84615378;4201.53846147;4302.43589758;4234.23076923;4960.38461692;2003.20512348;229.99999153;-0.00000896;4136.41025621;4367.69230797;4208.97435891;4302.05128219;4207.94871788;4171.53846140;4172.69230756;4205.12820506
4203.33333327;4176.28205115;4300.64102578;4235.51282052;4959.10256564;1976.15384136;229.99999153;-0.00000896;4136.92307672;4336.28205149;4173.33333320;4301.92307707;4235.64102564;4172.05128192;4173.58974345;4205.12820506
4203.33333327;4202.69230763;4301.66666681;4234.23076923;5158.84615580;2002.94871323;229.99999153;-0.00000896;4137.82051262;4336.53846175;4201.15384609;4301.41025655;4234.35897436;4173.07692294;4172.56410243;4205.12820506
4203.20512814;4201.92307686;4273.84615392;4234.87179488;4959.23077076;1976.28204649;229.99999153;-0.00000896;4137.17948697;4365.38461567;4169.74358961;4300.89743604;4203.33333327;4173.07692294;4171.66666653;4205.12820506
4203.97435891;4202.69230763;4300.25641040;4233.97435898;5088.97436078;2002.43589271;229.99999153;-0.00000896;4136.66666646;4339.10256431;4207.17948711;4302.43589758;4206.02564096;4172.05128192;4172.94871781;4205.12820506
4204.48717942;4201.79487173;4302.17948732;4235.38461539;5023.84615552;1974.74358495;229.99999153;-0.00000896;4137.17948697;4338.84615406;4201.92307686;4301.79487194;4207.82051275;4174.35897422;4172.69230756;4205.12820506
4203.07692301;4202.43589737;4299.48717963;4234.87179488;5089.48718130;1975.64102085;229.99999153;-0.00000896;4136.53846133;4368.33333362;4235.64102564;4300.25641040;4209.10256404;4171.02564089;4172.56410243;4205.12820506
4204.48717942;4203.20512814;4238.46153847;4235.76923077;5057.30769405;2003.33332861;229.99999153;-0.00000896;4138.58974339;4366.41025669;4171.66666653;4299.87179501;4201.02564096;4171.79487166;4174.48717935;4205.12820506
4204.61538455;4203.33333327;4299.74358989;4236.66666667;4928.07692454;2003.46153374;229.99999153;-0.00000896;4138.07692287;4338.20512842;4207.17948711;4301.15384630;4202.17948711;4171.53846140;4172.82051269;4205.12820506
4204.87179481;4204.10256404;4305.00000014;4237.94871795;5027.94871962;2002.69230297;229.99999153;-0.00000896;4139.35897415;4366.02564131;4207.82051275;4300.76923091;4234.61538462;4170.76923063;4172.82051269;4205.12820506
4204.35897429;4204.23076917;4333.07692329;4238.46153847;5023.07692475;2002.30768759;229.99999153;-0.00000896;4137.82051262;4334.48717970;4204.23076917;4273.71794879;4174.61538448;4173.71794858;4172.56410243;4205.12820506
4203.71794865;4206.02564096;4239.35897436;4239.48717949;5089.23077104;2002.69230297;229.99999153;-0.00000896;4110.12820485;4340.25641047;4173.84615371;4303.20512835;4203.97435891;4172.30769217;4172.69230756;4205.12820506
4204.48717942;4203.84615378;4239.23076923;4239.23076923;4989.23077083;1975.38461059;229.99999153;-0.00000896;4109.23076896;4367.05128233;4175.76923063;4299.74358989;4172.94871781;4173.33333320;4171.92307679;4205.12820506
4203.97435891;4204.10256404;4269.74358982;4237.56410257;5120.38461726;2002.17948246;229.99999153;-0.00000896;4107.56410229;4370.25641054;4207.94871788;4302.05128219;4235.51282052;4170.64102551;4172.43589730;4205.12820506
4204.10256404;4203.58974352;4307.05128219;4237.17948718;5127.17948906;1976.41025162;229.99999153;-0.00000896;4105.76923050;4369.74359003;4206.66666660;4300.12820527;4240.00000000;4172.05128192;4172.82051269;4205.12820506
4204.23076917;4203.97435891;4307.05128219;4236.79487180;5022.05128372;1976.02563623;229.99999153;-0.00000896;4104.48717921;4367.69230797;4207.69230763;4302.43589758;4235.89743590;4171.02564089;4172.30769217;4205.12820506
4204.74358968;4203.58974352;4239.35897436;4235.76923077;4962.56410410;1977.17948239;8275.12821368;-0.00000896;4104.35897408;4366.79487208;4170.38461525;4301.28205142;4171.15384602;4172.56410243;4169.74358961;4205.12820506
4204.74358968;4204.48717942;4237.05128206;4234.48717949;4994.23077083;1971.66666188;8240.00000848;-0.00000896;4106.79487152;4366.28205156;4169.87179474;4301.02564117;4171.79487166;4172.43589730;4172.30769217;4205.12820506
4204.99999993;4202.82051275;4267.05128212;4234.61538462;5089.35897617;1973.46153367;229.99999153;-0.00000896;4108.20512793;4368.84615413;4174.10256397;4273.97435905;4204.23076917;4173.07692294;4170.89743576;4205.12820506
4204.35897429;4203.07692301;4302.30769245;4235.38461539;5088.58974540;1976.66666188;8240.00000848;-0.00000896;4106.02564075;4367.17948746;4206.15384609;4300.00000014;4206.66666660;4173.33333320;4172.69230756;4205.12820506
4205.38461532;4203.20512814;4301.53846168;4233.84615385;4989.35897596;1975.12820034;-0.00000896;-0.00000896;4108.58974332;4367.05128233;4202.17948711;4300.00000014;4202.82051275;4172.30769217;4169.74358961;4205.12820506
4205.12820506;4202.56410250;4269.48717956;4234.87179488;5056.28205302;1973.84614906;-0.00000896;-0.00000896;4110.64102537;4366.92307720;4171.28205115;4274.61538469;4202.56410250;4174.23076910;4172.30769217;4205.12820506
4204.10256404;4202.30769224;4241.15384616;4234.35897436;5028.07692475;1976.02563623;-0.00000896;-0.00000896;4135.38461518;4368.20512849;4170.64102551;4305.00000014;4205.76923070;4171.41025628;4172.30769217;4205.12820506
4204.10256404;4201.66666660;4272.69230777;4236.02564103;4923.84615531;1975.12820034;-0.00000896;-0.00000896;4109.74358947;4365.64102592;4204.10256404;4301.41025655;4174.10256397;4170.76923063;4173.97435884;4205.12820506
4203.71794865;4202.43589737;4268.97435905;4236.28205129;5092.17948899;1974.61537982;-0.00000896;-0.00000896;4109.99999973;4340.38461560;4236.53846154;4301.66666681;4236.79487180;4173.46153833;4173.33333320;4205.12820506
4203.97435891;4202.56410250;4234.48717949;4237.05128206;5058.58974533;1975.25640547;-0.00000896;-0.00000896;4108.33333306;4336.92307714;4173.84615371;4301.15384630;4176.02564089;4172.82051269;4172.82051269;4205.12820506
4204.23076917;4202.94871788;4206.79487173;4235.38461539;4864.87179620;2003.58973887;-0.00000896;-0.00000896;4107.17948691;4369.48717977;4136.41025621;4301.66666681;4139.23076903;4172.43589730;4172.56410243;4205.12820506
4204.61538455;4204.23076917;4235.38461539;4236.79487180;5091.66666848;2002.05127733;-0.00000896;-0.00000896;4107.17948691;4366.53846182;4169.35897422;4300.89743604;4175.25641012;4173.07692294;4174.87179474;4205.12820506
4205.25641019;4204.61538455;4302.17948732;4236.02564103;5087.56410437;2004.23076451;-0.00000896;-0.00000896;4106.53846126;4368.33333362;4204.99999993;4300.64102578;4207.17948711;4173.33333320;4172.69230756;4205.12820506
4204.48717942;4204.48717942;4305.76923091;4236.53846154;5027.94871962;1976.28204649;-0.00000896;-0.00000896;4104.74358947;4365.64102592;4207.82051275;4301.28205142;4233.84615385;4171.66666653;4172.05128192;4205.12820506
4205.38461532;4204.87179481;4266.66666674;4235.89743590;5090.00000181;1976.53845675;-0.00000896;-0.00000896;4105.51282024;4371.79487208;4169.35897422;4273.84615392;4175.76923063;4172.05128192;4172.82051269;4205.12820506
4207.17948711;4203.71794865;4234.35897436;4235.12820513;5023.33333500;1976.28204649;-0.00000896;-0.00000896;4105.51282024;4367.69230797;4110.12820485;4303.58974373;4203.84615378;4173.07692294;4172.94871781;4205.12820506
4205.38461532;4203.20512814;4241.02564103;4235.51282052;5121.79487367;2002.17948246;-0.00000896;-0.00000896;4107.30769203;4367.69230797;4205.51282045;4301.28205142;4206.28205122;4171.79487166;4173.33333320;4205.12820506
4206.53846147;4202.82051275;4268.58974366;4235.00000000;5023.07692475;2002.56409784;-0.00000896;-0.00000896;4107.17948691;4368.71794900;4201.92307686;4301.41025655;4208.07692301;4173.33333320;4172.69230756;4205.12820506
4206.02564096;4202.94871788;4271.92307700;4234.87179488;4993.58974519;1976.92307213;-0.00000896;-0.00000896;4108.20512793;4366.15384644;4171.79487166;4302.56410271;4205.12820506;4172.30769217;4172.43589730;4205.12820506
4205.51282045;4204.10256404;4267.43589751;4234.48717949;5092.05128386;2003.33332861;-0.00000896;-0.00000896;4108.58974332;4367.82051310;4141.92307672;4301.02564117;4204.10256404;4171.41025628;4172.56410243;4205.12820506
4203.97435891;4203.20512814;4266.92307700;4235.64102564;4862.82051414;1976.66666188;-0.00000896;-0.00000896;4107.17948691;4366.15384644;4136.15384595;4300.00000014;4201.02564096;4171.79487166;4173.07692294;4205.12820506
4205.25641019;4203.71794865;4299.48717963;4235.25641026;5255.38461754;1975.64102085;-0.00000896;-0.00000896;4107.94871767;4368.84615413;4175.38461525;4300.12820527;4234.48717949;4172.69230756;4172.94871781;4205.12820506
4204.74358968;4203.97435891;4300.00000014;4236.53846154;4992.69230929;1975.76922598;-0.00000896;-0.00000896;4106.15384588;4372.30769259;4204.35897429;4301.41025655;4173.33333320;4172.43589730;4172.94871781;4205.12820506
4205.76923070;4203.71794865;4207.94871788;4235.25641026;4992.43589904;2002.82050810;-0.00000896;-0.00000896;4106.02564075;4372.30769259;4137.17948697;4301.28205142;4109.74358947;4171.79487166;4172.30769217;4205.12820506
4205.25641019;4204.87179481;4205.89743583;4235.64102564;4826.92307818;1976.92307213;-0.00000896;-0.00000896;4106.79487152;4369.48717977;4106.79487152;4301.53846168;4077.56410222;4170.89743576;4175.25641012;4205.12820506
4205.76923070;4203.84615378;4236.92307693;4234.48717949;5159.61538656;1975.38461059;-0.00000896;-0.00000896;4107.56410229;4368.71794900;4135.64102544;4299.87179501;4141.66666646;4171.41025628;4172.69230756;4205.12820506
4205.38461532;4203.20512814;4271.92307700;4236.02564103;5059.10256584;1974.35896957;-0.00000896;-0.00000896;4106.53846126;4403.97435933;4170.38461525;4300.25641040;4170.12820499;4172.82051269;4174.48717935;4205.12820506
4205.51282045;4204.23076917;4302.30769245;4235.89743590;5056.15384789;1976.92307213;-0.00000896;-0.00000896;4105.38461511;4399.35897471;4202.56410250;4301.15384630;4204.35897429;4172.30769217;4173.20512807;4205.12820506
4205.64102558;4202.56410250;4208.33333327;4235.25641026;4996.28205288;2002.56409784;229.99999153;-0.00000896;4104.10256383;4371.02564131;4106.02564075;4301.28205142;4141.41025621;4171.79487166;4173.58974345;4205.12820506
4207.05128199;4202.43589737;4206.41025634;4235.38461539;4958.07692461;1973.58973880;229.99999153;-0.00000896;4105.64102537;4369.74359003;4107.05128178;4301.53846168;4106.28205101;4172.30769217;4171.66666653;4205.12820506
4205.76923070;4203.46153840;4237.56410257;4234.35897436;5055.64102738;1975.64102085;229.99999153;-0.00000896;4107.30769203;4401.79487215;4107.69230742;4274.48717956;4109.10256383;4174.74358961;4172.94871781;4205.12820506
4205.25641019;4202.94871788;4240.25641026;4234.87179488;4924.87179633;1974.35896957;229.99999153;-0.00000896;4107.82051255;4372.05128233;4138.20512800;4300.25641040;4171.15384602;4172.56410243;4171.28205115;4205.12820506
4205.38461532;4201.41025634;4272.69230777;4235.12820513;5095.12820694;1976.79486700;8272.05129060;-0.00000896;4107.30769203;4370.12820541;4169.87179474;4273.71794879;4175.12820499;4171.79487166;4172.82051269;4205.12820506
4203.33333327;4201.79487173;4234.35897436;4235.76923077;5157.69230964;1976.53845675;139.35896568;-0.00000896;4107.94871767;4369.10256438;4110.25640998;4301.53846168;4139.10256390;4170.51282038;4172.56410243;4205.12820506
4203.58974352;4201.28205122;4204.74358968;4234.87179488;4960.00000153;2002.43589271;229.99999153;-0.00000896;4107.56410229;4368.46153874;4136.92307672;4300.38461553;4110.38461511;4172.94871781;4172.82051269;4205.12820506
4204.74358968;4202.05128199;4204.87179481;4235.12820513;5091.53846335;1976.02563623;139.35896568;-0.00000896;4107.30769203;4371.28205156;4141.41025621;4268.58974366;4141.66666646;4173.07692294;4171.66666653;4205.12820506
4203.58974352;4202.69230763;4239.48717949;4235.12820513;5028.84615552;2002.43589271;229.99999153;-0.00000896;4106.92307665;4369.61538490;4168.97435884;4274.74358982;4141.53846133;4172.05128192;4172.69230756;4205.12820506
4202.30769224;4202.17948711;4234.23076923;4235.76923077;5057.56410431;1976.79486700;139.35896568;-0.00000896;4107.43589716;4367.43589772;4136.66666646;4300.25641040;4172.82051269;4171.92307679;4173.20512807;4205.12820506
4203.33333327;4201.28205122;4205.25641019;4235.25641026;4992.17948878;2004.35896964;229.99999153;-0.00000896;4106.92307665;4367.69230797;4105.64102537;4300.38461553;4110.64102537;4172.94871781;4172.82051269;4205.12820506
4203.84615378;4203.58974352;4207.82051275;4234.35897436;5092.82051463;1976.79486700;139.35896568;-0.00000896;4106.53846126;4366.02564131;4141.41025621;4299.87179501;4171.02564089;4171.92307679;4172.82051269;4205.12820506
4202.82051275;4202.82051275;4269.87179495;4235.12820513;5022.17948885;1976.92307213;229.99999153;-0.00000896;4105.89743562;4368.84615413;4174.99999986;4300.25641040;4204.23076917;4172.17948704;4171.92307679;4205.12820506
4204.87179481;4202.56410250;4238.84615385;4234.61538462;5127.43589932;2002.82050810;139.35896568;-0.00000896;4106.02564075;4371.92307720;4205.64102558;4273.71794879;4204.99999993;4171.79487166;4172.82051269;4205.12820506
4204.23076917;4203.07692301;4207.17948711;4235.76923077;5025.12820680;2003.20512348;229.99999153;-0.00000896;4105.25640998;4369.23076951;4107.94871767;4300.89743604;4109.99999973;4171.53846140;4171.92307679;4205.12820506
4205.38461532;4202.05128199;4207.69230763;4236.02564103;4993.71795032;2002.82050810;139.35896568;-0.00000896;4103.84615357;4369.10256438;4076.53846119;4301.79487194;4142.30769210;4172.30769217;4172.56410243;4205.12820506
4205.12820506;4203.46153840;4238.33333334;4234.74358975;5125.51282239;1977.05127726;229.99999153;-0.00000896;4105.89743562;4370.12820541;4135.51282031;4301.53846168;4175.51282038;4174.23076910;4172.69230756;4205.12820506
4205.64102558;4202.17948711;4238.20512821;4234.48717949;4858.07692440;1977.17948239;139.35896568;-0.00000896;4106.66666639;4373.20512849;4168.84615371;4302.56410271;4172.69230756;4172.05128192;4173.07692294;4205.12820506
4205.76923070;4202.43589737;4236.79487180;4235.38461539;4961.41025794;2003.07691836;229.99999153;-0.00000896;4105.89743562;4367.69230797;4137.17948697;4300.51282066;4170.38461525;4171.41025628;4172.94871781;4205.12820506
4206.79487173;4202.69230763;4236.79487180;4234.23076923;5126.53846342;2002.82050810;139.35896568;-0.00000896;4106.66666639;4372.17948746;4168.84615371;4274.23076930;4170.12820499;4173.20512807;4172.69230756;4205.12820506
4205.64102558;4202.56410250;4236.02564103;4235.64102564;5029.35897603;1972.94871316;229.99999153;-0.00000896;4106.66666639;4372.69230797;4139.35897415;4300.00000014;4140.38461518;4172.43589730;4173.07692294;4205.12820506
4205.64102558;4202.43589737;4208.20512814;4235.25641026;4992.94871955;1976.92307213;139.35896568;-0.00000896;4106.28205101;4370.64102592;4137.69230749;4300.00000014;4139.35897415;4172.17948704;4172.94871781;4205.12820506
4204.61538455;4203.84615378;4271.28205136;4235.12820513;5028.84615552;1973.46153367;229.99999153;-0.00000896;4107.69230742;4369.74359003;4139.35897415;4299.87179501;4172.30769217;4173.33333320;4172.17948704;4205.12820506
4205.89743583;4202.17948711;4241.79487180;4235.64102564;5092.30769412;1975.25640547;139.35896568;-0.00000896;4106.28205101;4372.82051310;4139.23076903;4300.51282066;4173.84615371;4171.41025628;4172.43589730;4205.12820506
4205.51282045;4202.17948711;4240.38461539;4234.74358975;5158.07692503;2002.30768759;229.99999153;-0.00000896;4105.25640998;4372.94871823;4172.43589730;4304.61538476;4172.94871781;4172.17948704;4172.94871781;4205.12820506
4204.35897429;4202.69230763;4208.46153840;4235.64102564;4992.94871955;1977.30768752;139.35896568;-0.00000896;4104.35897408;4369.10256438;4142.05128185;4299.61538476;4142.69230749;4172.56410243;4173.20512807;4205.12820506
4206.15384609;4201.53846147;4268.71794879;4235.00000000;5094.23077104;1975.64102085;229.99999153;-0.00000896;4105.76923050;4368.33333362;4171.02564089;4300.12820527;4175.38461525;4172.56410243;4172.94871781;4205.12820506
4204.61538455;4203.97435891;4238.84615385;4233.97435898;5028.97436065;1974.48717470;139.35896568;-0.00000896;4107.17948691;4369.87179515;4142.43589723;4300.12820527;4139.23076903;4172.17948704;4171.66666653;4205.12820506
4205.76923070;4202.30769224;4208.46153840;4233.84615385;5087.82051463;1976.66666188;229.99999153;-0.00000896;4106.28205101;4371.66666695;4108.07692280;4300.76923091;4143.07692287;4175.12820499;4172.94871781;4205.12820506
4205.12820506;4202.05128199;4203.71794865;4234.35897436;4963.07692461;2004.10255938;139.35896568;-0.00000896;4103.84615357;4370.89743618;4106.28205101;4301.41025655;4109.87179460;4174.23076910;4173.58974345;4205.12820506
4205.38461532;4202.56410250;4234.10256411;4234.23076923;4992.82051442;2002.94871323;229.99999153;-0.00000896;4106.28205101;4368.97435926;4173.71794858;4300.12820527;4141.02564082;4172.69230756;4173.20512807;4205.12820506
4205.38461532;4203.07692301;4207.30769224;4236.28205129;5093.97436078;1974.74358495;139.35896568;-0.00000896;4106.66666639;4371.15384644;4171.41025628;4302.56410271;4143.46153826;4172.30769217;4173.07692294;4205.12820506
4205.38461532;4201.79487173;4240.51282052;4234.48717949;5028.58974526;1977.30768752;229.99999153;-0.00000896;4109.10256383;4368.20512849;4201.53846147;4304.35897450;4173.97435884;4174.61538448;4172.82051269;4205.12820506
4204.87179481;4202.43589737;4267.56410264;4234.74358975;5058.84615559;1974.74358495;8273.07693163;-0.00000896;4106.28205101;4366.92307720;4172.82051269;4301.66666681;4173.97435884;4174.48717935;4173.20512807;4205.12820506
4204.74358968;4202.69230763;4267.69230777;4236.79487180;5054.35897610;1975.51281572;8308.97436759;-0.00000896;4105.64102537;4370.76923105;4135.89743569;4299.61538476;4139.48717928;4172.69230756;4172.30769217;4205.12820506
4204.48717942;4202.43589737;4203.71794865;4236.28205129;5122.30769419;2002.05127733;8243.97436746;-0.00000896;4106.66666639;4371.66666695;4140.64102544;4301.41025655;4139.99999980;4173.07692294;4172.94871781;4205.12820506
4205.38461532;4201.66666660;4270.38461546;4236.53846154;4992.43589904;2002.69230297;229.99999153;-0.00000896;4103.20512793;4368.71794900;4173.58974345;4274.61538469;4168.20512807;4174.87179474;4173.20512807;4205.12820506
4204.87179481;4202.94871788;4241.28205129;4235.25641026;5025.38461706;1974.48717470;229.99999153;-0.00000896;4104.61538434;4369.48717977;4175.25641012;4274.10256418;4169.23076910;4171.41025628;4172.69230756;4205.12820506
4205.38461532;4202.94871788;4237.17948718;4234.61538462;4993.71795032;1975.76922598;229.99999153;-0.00000896;4104.23076896;4371.02564131;4138.71794851;4274.61538469;4136.66666646;4173.97435884;4173.07692294;4205.12820506
4204.61538455;4203.07692301;4238.58974359;4235.51282052;5062.30769405;2002.43589271;229.99999153;-0.00000896;4104.74358947;4368.20512849;4139.74358954;4301.02564117;4141.28205108;4171.92307679;4172.94871781;4205.12820506
4205.25641019;4203.20512814;4299.87179501;4234.61538462;4994.10256570;1976.28204649;-0.00000896;-0.00000896;4103.58974332;4368.46153874;4168.97435884;4274.61538469;4169.61538448;4173.33333320;4173.46153833;4205.12820506
4204.61538455;4203.07692301;4300.25641040;4235.12820513;5028.58974526;1974.61537982;-0.00000896;-0.00000896;4103.46153819;4398.97435933;4202.94871788;4299.74358989;4204.99999993;4173.97435884;4172.94871781;4205.12820506
4205.89743583;4202.05128199;4237.43589744;4235.25641026;4995.12820673;1976.28204649;-0.00000896;-0.00000896;4104.10256383;4371.41025669;4143.33333313;4300.25641040;4171.79487166;4174.10256397;4172.94871781;4205.12820506
4206.02564096;4201.41025634;4174.10256397;4234.87179488;4962.43589897;2004.48717477;-0.00000896;-0.00000896;4077.82051248;4368.58974387;4139.74358954;4302.82051296;4135.89743569;4174.61538448;4172.94871781;4205.12820506
4205.25641019;4203.97435891;4206.79487173;4234.61538462;5062.43589918;2002.82050810;-0.00000896;-0.00000896;4105.38461511;4373.20512849;4109.10256383;4299.48717963;4169.35897422;4173.71794858;4173.07692294;4205.12820506
4204.23076917;4203.58974352;4240.64102564;4235.12820513;5022.30769398;2002.82050810;-0.00000896;-0.00000896;4106.79487152;4368.71794900;4172.82051269;4300.51282066;4174.87179474;4172.30769217;4175.89743576;4205.12820506
4206.28205122;4201.53846147;4274.61538469;4234.10256411;5125.64102752;1976.28204649;-0.00000896;-0.00000896;4105.89743562;4367.43589772;4201.28205122;4301.79487194;4174.48717935;4172.56410243;4172.82051269;4205.12820506
4205.51282045;4201.92307686;4266.92307700;4234.87179488;5024.87179654;2002.56409784;-0.00000896;-0.00000896;4104.87179460;4370.64102592;4169.74358961;4274.48717956;4173.97435884;4170.76923063;4173.20512807;4205.12820506
4204.99999993;4202.94871788;4205.38461532;4234.35897436;5059.87179661;2002.17948246;-0.00000896;-0.00000896;4103.58974332;4369.35897464;4076.28205094;4299.87179501;4110.64102537;4172.43589730;4173.20512807;4205.12820506
4205.64102558;4202.05128199;4173.97435884;4208.58974352;4992.82051442;2006.66666195;-0.00000896;-0.00000896;4103.97435870;4370.12820541;4136.92307672;4273.84615392;4170.12820499;4172.94871781;4173.07692294;4205.12820506
4205.51282045;4203.07692301;4267.05128212;4208.58974352;5059.48718123;1976.15384136;-0.00000896;-0.00000896;4105.51282024;4373.07692336;4175.25641012;4300.00000014;4169.61538448;4174.10256397;4172.94871781;4205.12820506
4205.64102558;4202.82051275;4238.20512821;4233.84615385;5088.20513002;1975.12820034;-0.00000896;-0.00000896;4105.51282024;4399.48717984;4140.76923056;4299.74358989;4142.69230749;4173.46153833;4175.12820499;4205.12820506
4205.76923070;4201.66666660;4235.25641026;4234.23076923;4960.51282205;2004.23076451;-0.00000896;-0.00000896;4105.76923050;4372.82051310;4140.38461518;4273.71794879;4135.89743569;4173.97435884;4172.69230756;4205.12820506
4204.74358968;4201.66666660;4203.20512814;4235.38461539;4825.00000125;1975.76922598;-0.00000896;-0.00000896;4105.64102537;4371.41025669;4109.99999973;4301.15384630;4109.10256383;4172.82051269;4171.79487166;4205.12820506
4205.89743583;4202.17948711;4233.97435898;4208.97435891;5120.12820701;1974.61537982;-0.00000896;-0.00000896;4102.82051255;4371.92307720;4137.05128185;4300.76923091;4138.20512800;4172.43589730;4173.07692294;4205.12820506
4205.89743583;4202.05128199;4239.35897436;4233.84615385;4996.53846314;1976.41025162;-0.00000896;-0.00000896;4104.74358947;4367.43589772;4136.66666646;4300.64102578;4110.38461511;4173.58974345;4172.69230756;4205.12820506
4205.25641019;4202.69230763;4239.35897436;4235.64102564;5058.97436072;1974.10255931;-0.00000896;-0.00000896;4105.89743562;4370.25641054;4140.38461518;4273.07692315;4139.10256390;4173.84615371;4173.33333320;4205.12820506
4204.61538455;4202.94871788;4206.79487173;4235.51282052;5024.23077090;1973.97435418;-0.00000896;-0.00000896;4106.28205101;4372.17948746;4108.71794844;4274.61538469;4141.28205108;4173.33333320;4173.07692294;4205.12820506
4204.35897429;4201.66666660;4234.61538462;4234.87179488;5060.25641200;1976.92307213;-0.00000896;-0.00000896;4105.76923050;4372.69230797;4137.82051262;4300.25641040;4142.30769210;4175.64102551;4175.12820499;4205.12820506
4204.23076917;4202.05128199;4268.84615392;4235.12820513;5054.74359148;1975.76922598;-0.00000896;-0.00000896;4105.64102537;4371.53846182;4142.56410236;4302.05128219;4168.20512807;4171.28205115;4173.07692294;4205.12820506
4204.74358968;4201.41025634;4273.33333341;4235.12820513;4896.66666806;1975.12820034;-0.00000896;-0.00000896;4103.71794844;4370.12820541;4171.02564089;4302.30769245;4143.33333313;4174.74358961;4173.20512807;4205.12820506
4205.25641019;4201.15384609;4272.69230777;4235.12820513;4960.89743743;1976.02563623;-0.00000896;-0.00000896;4103.84615357;4369.48717977;4171.92307679;4301.02564117;4173.97435884;4173.97435884;4173.20512807;4205.12820506
4203.07692301;4176.28205115;4209.10256404;4234.87179488;5092.82051463;1974.99999521;-0.00000896;-0.00000896;4105.25640998;4372.69230797;4110.38461511;4300.12820527;4141.15384595;4173.58974345;4170.38461525;4205.12820506
4204.10256404;4201.79487173;4234.61538462;4235.76923077;5023.33333500;2003.46153374;-0.00000896;-0.00000896;4104.48717921;4370.51282079;4135.38461518;4300.51282066;4135.38461518;4173.46153833;4172.69230756;4205.12820506
4203.07692301;4201.92307686;4235.38461539;4235.00000000;4859.10256543;2005.12820041;229.99999153;-0.00000896;4104.87179460;4366.79487208;4138.33333313;4301.66666681;4140.64102544;4173.46153833;4173.84615371;4205.12820506
4203.07692301;4201.41025634;4240.64102564;4235.25641026;5055.51282225;1975.12820034;8245.12821361;-0.00000896;4077.56410222;4368.20512849;4171.41025628;4302.17948732;4172.30769217;4173.20512807;4172.56410243;4205.12820506
4203.84615378;4202.30769224;4266.92307700;4235.00000000;5023.71795039;1976.53845675;101.66665792;-0.00000896;4105.25640998;4367.05128233;4169.10256397;4274.74358982;4138.97435877;4172.43589730;4173.46153833;4205.12820506
4205.25641019;4201.41025634;4241.92307693;4234.74358975;5087.82051463;1975.51281572;-0.00000896;-0.00000896;4103.97435870;4369.61538490;4171.79487166;4300.51282066;4201.15384609;4173.71794858;4172.82051269;4205.12820506
4204.35897429;4175.76923063;4238.58974359;4234.23076923;4895.64102703;1977.05127726;229.99999153;-0.00000896;4103.97435870;4371.92307720;4138.84615364;4301.66666681;4138.58974339;4173.33333320;4173.20512807;4205.12820506
4203.33333327;4202.43589737;4272.30769238;4236.28205129;5054.74359148;2002.56409784;229.99999153;-0.00000896;4104.74358947;4368.58974387;4173.20512807;4301.53846168;4201.41025634;4173.07692294;4171.92307679;4205.12820506
4204.61538455;4201.53846147;4267.05128212;4234.74358975;4862.05128338;2003.33332861;229.99999153;-0.00000896;4104.23076896;4366.92307720;4140.64102544;4303.33333348;4140.12820492;4173.58974345;4172.94871781;4205.12820506
4204.10256404;4203.20512814;4268.07692315;4235.89743590;5058.84615559;1976.66666188;229.99999153;-0.00000896;4106.02564075;4367.56410285;4175.25641012;4300.38461553;4171.79487166;4173.20512807;4172.94871781;4205.12820506
4204.87179481;4203.20512814;4236.02564103;4236.02564103;5022.94871962;1976.66666188;229.99999153;-0.00000896;4106.66666639;4372.69230797;4171.41025628;4302.17948732;4175.64102551;4173.07692294;4173.07692294;4205.12820506
4204.48717942;4202.94871788;4268.84615392;4236.02564103;5192.94871997;2002.56409784;229.99999153;-0.00000896;4106.28205101;4367.82051310;4204.61538455;4301.15384630;4202.82051275;4173.84615371;4173.84615371;4205.12820506
4202.94871788;4202.94871788;4240.12820513;4236.66666667;4961.02564256;1975.38461059;229.99999153;-0.00000896;4105.38461511;4368.71794900;4141.15384595;4301.15384630;4173.58974345;4172.69230756;4172.94871781;4205.12820506
4203.71794865;4201.53846147;4241.66666667;4237.82051282;4995.25641186;1975.25640547;229.99999153;-0.00000896;4105.76923050;4370.89743618;4141.15384595;4299.87179501;4170.12820499;4173.33333320;4173.71794858;4205.12820506
4204.74358968;4202.30769224;4237.17948718;4236.79487180;4956.15384769;1975.89743111;229.99999153;-0.00000896;4102.94871767;4371.15384644;4174.99999986;4300.76923091;4142.05128185;4173.97435884;4172.82051269;4205.12820506
4203.20512814;4203.97435891;4234.87179488;4238.58974359;5094.74359155;2002.94871323;229.99999153;-0.00000896;4076.66666632;4370.51282079;4168.46153833;4302.17948732;4169.87179474;4173.84615371;4174.10256397;4205.12820506
4203.71794865;4201.41025634;4237.05128206;4236.79487180;5125.76923265;1976.41025162;229.99999153;-0.00000896;4076.15384581;4369.48717977;4204.61538455;4301.53846168;4207.17948711;4173.07692294;4172.56410243;4205.12820506
4203.58974352;4202.17948711;4270.51282059;4235.64102564;4895.38461678;2004.74358502;229.99999153;-0.00000896;4075.64102530;4369.61538490;4202.17948711;4301.66666681;4137.17948697;4172.94871781;4172.94871781;4205.12820506
4203.97435891;4201.92307686;4206.15384609;4235.38461539;4929.35897582;1977.05127726;229.99999153;-0.00000896;4075.89743555;4368.20512849;4140.89743569;4302.05128219;4142.17948697;4172.94871781;4201.02564096;4205.12820506
4203.97435891;4202.69230763;4203.97435891;4234.10256411;5093.33333514;1971.53845675;229.99999153;-0.00000896;4103.97435870;4368.33333362;4139.99999980;4301.79487194;4168.84615371;4172.69230756;4172.69230756;4205.12820506
4203.33333327;4202.17948711;4233.84615385;4234.74358975;5024.87179654;1975.89743111;229.99999153;-0.00000896;4077.82051248;4371.41025669;4171.79487166;4301.66666681;4169.48717935;4173.46153833;4172.69230756;4205.12820506
4203.07692301;4202.82051275;4271.66666674;4234.10256411;5028.84615552;2005.64102092;229.99999153;-0.00000896;4102.56410229;4370.38461567;4202.05128199;4274.74358982;4202.30769224;4172.94871781;4173.20512807;4205.12820506
4203.97435891;4202.56410250;4266.92307700;4233.84615385;5125.00000188;1976.66666188;229.99999153;-0.00000896;4102.82051255;4369.48717977;4266.66666674;4300.38461553;4234.87179488;4172.30769217;4173.07692294;4205.12820506
4203.71794865;4202.43589737;4241.02564103;4235.00000000;5089.35897617;1974.99999521;229.99999153;-0.00000896;4106.53846126;4400.76923112;4141.28205108;4301.41025655;4142.56410236;4173.71794858;4172.69230756;4205.12820506
4204.10256404;4201.53846147;4206.79487173;4235.76923077;5027.69230936;2002.17948246;229.99999153;-0.00000896;4106.66666639;4372.30769259;4143.20512800;4299.74358989;4169.23076910;4172.56410243;4173.46153833;4205.12820506
4203.58974352;4201.92307686;4267.30769238;4234.61538462;4897.30769370;1976.15384136;229.99999153;-0.00000896;4106.66666639;4368.33333362;4175.64102551;4300.89743604;4142.82051262;4173.71794858;4172.82051269;4205.12820506
4202.05128199;4176.15384602;4266.79487187;4237.56410257;5061.92307866;1976.02563623;229.99999153;-0.00000896;4104.35897408;4370.00000028;4207.30769224;4300.25641040;4203.20512814;4172.43589730;4174.48717935;4205.12820506
4203.97435891;4176.28205115;4238.58974359;4237.30769231;5056.66666841;1977.17948239;229.99999153;-0.00000896;4076.66666632;4365.51282079;4169.87179474;4301.02564117;4202.82051275;4173.71794858;4172.82051269;4205.12820506
4203.33333327;4201.79487173;4237.17948718;4237.56410257;4996.41025801;1975.51281572;229.99999153;-0.00000896;4075.25640991;4366.53846182;4168.84615371;4273.84615392;4175.76923063;4172.82051269;4172.43589730;4205.12820506
4204.10256404;4202.17948711;4206.41025634;4236.79487180;4960.25641179;1975.12820034;229.99999153;-0.00000896;4075.51282017;4372.43589772;4138.97435877;4299.48717963;4136.53846133;4171.66666653;4175.38461525;4205.12820506
4204.23076917;4202.69230763;4206.79487173;4236.41025641;5059.10256584;1976.41025162;229.99999153;-0.00000896;4074.99999966;4371.41025669;4142.30769210;4301.53846168;4169.99999986;4174.10256397;4172.82051269;4205.12820506
4204.74358968;4202.94871788;4270.12820520;4236.15384616;4990.25641186;1976.79486700;229.99999153;-0.00000896;4073.84615350;4365.38461567;4174.48717935;4274.74358982;4140.25641005;4173.97435884;4172.69230756;4205.12820506
4204.48717942;4201.15384609;4238.84615385;4234.74358975;5025.00000167;1973.84614906;229.99999153;-0.00000896;4074.48717914;4367.94871823;4202.69230763;4300.51282066;4174.35897422;4173.58974345;4172.82051269;4205.12820506
4204.35897429;4202.43589737;4237.05128206;4234.87179488;4961.02564256;2002.17948246;229.99999153;-0.00000896;4074.23076889;4373.07692336;4139.99999980;4274.74358982;4141.15384595;4173.97435884;4172.82051269;4205.12820506
4204.35897429;4202.43589737;4237.17948718;4234.61538462;5127.43589932;2003.07691836;229.99999153;-0.00000896;4075.51282017;4368.58974387;4173.84615371;4302.17948732;4201.02564096;4174.35897422;4172.17948704;4205.12820506
4204.74358968;4202.30769224;4271.66666674;4233.97435898;4993.84615545;2003.07691836;229.99999153;-0.00000896;4077.56410222;4370.76923105;4175.12820499;4267.43589751;4168.71794858;4171.92307679;4173.97435884;4205.12820506
4205.76923070;4201.15384609;4240.76923077;4233.84615385;5060.00000174;1977.05127726;229.99999153;-0.00000896;4077.43589709;4369.35897464;4201.92307686;4300.00000014;4203.20512814;4173.07692294;4172.69230756;4205.12820506
4204.35897429;4202.30769224;4238.46153847;4234.35897436;4991.15384776;2004.35896964;229.99999153;-0.00000896;4102.56410229;4366.41025669;4170.51282038;4300.38461553;4139.23076903;4173.20512807;4172.82051269;4205.12820506
4204.87179481;4202.43589737;4235.76923077;4233.84615385;5155.64102759;1976.28204649;229.99999153;-0.00000896;4103.20512793;4370.89743618;4175.25641012;4301.92307707;4207.43589737;4174.99999986;4172.56410243;4205.12820506
4204.10256404;4202.69230763;4273.46153853;4234.48717949;4894.35897575;2005.64102092;8305.51282913;-0.00000896;4075.12820478;4367.82051310;4205.51282045;4299.61538476;4171.79487166;4174.61538448;4172.30769217;4205.12820506
4204.99999993;4203.71794865;4271.66666674;4235.12820513;5153.46154041;1974.74358495;8212.43590585;-0.00000896;4077.56410222;4372.05128233;4237.05128206;4274.74358982;4236.15384616;4171.02564089;4172.56410243;4205.12820506
4203.71794865;4203.07692301;4301.02564117;4233.84615385;5025.89743757;2003.84614912;229.99999153;-0.00000896;4077.05128171;4398.58974394;4206.92307686;4302.30769245;4207.30769224;4172.69230756;4173.07692294;4205.12820506
4204.99999993;4201.79487173;4267.43589751;4234.48717949;5156.41025836;1977.05127726;8212.43590585;-0.00000896;4077.82051248;4368.58974387;4168.84615371;4272.43589751;4143.46153826;4175.38461525;4172.94871781;4205.12820506
4204.35897429;4175.64102551;4174.61538448;4235.00000000;4896.15384755;1976.53845675;-0.00000896;-0.00000896;4103.46153819;4369.10256438;4107.69230742;4300.12820527;4136.53846133;4171.28205115;4172.56410243;4205.12820506
4204.99999993;4201.41025634;4206.41025634;4235.12820513;5054.87179661;1974.48717470;-0.00000896;-0.00000896;4077.30769196;4373.20512849;4170.76923063;4273.97435905;4140.64102544;4172.82051269;4172.56410243;4205.12820506
4205.64102558;4176.28205115;4273.46153853;4235.51282052;4897.94871934;2002.56409784;-0.00000896;-0.00000896;4077.56410222;4368.33333362;4204.61538455;4302.69230784;4201.28205122;4174.99999986;4172.82051269;4205.12820506
4205.64102558;4202.05128199;4269.74358982;4235.38461539;5090.38461720;2002.94871323;-0.00000896;-0.00000896;4077.56410222;4368.33333362;4203.46153840;4300.89743604;4205.12820506;4172.43589730;4173.07692294;4205.12820506
4206.28205122;4202.30769224;4208.71794865;4234.74358975;4923.07692454;1977.05127726;-0.00000896;-0.00000896;4103.33333306;4367.56410285;4141.02564082;4301.15384630;4170.51282038;4174.74358961;4172.69230756;4205.12820506
4205.76923070;4202.43589737;4238.20512821;4209.10256404;5061.28205302;1977.05127726;-0.00000896;-0.00000896;4103.33333306;4367.05128233;4140.51282031;4273.33333341;4170.64102551;4174.87179474;4172.82051269;4205.12820506
4203.58974352;4203.97435891;4305.64102578;4234.87179488;5058.46154020;1974.74358495;-0.00000896;-0.00000896;4104.61538434;4370.00000028;4170.89743576;4301.41025655;4204.99999993;4172.82051269;4172.69230756;4205.12820506
4203.71794865;4201.79487173;4271.41025648;4235.38461539;4956.92307846;1975.51281572;-0.00000896;-0.00000896;4103.58974332;4370.89743618;4208.07692301;4274.35897443;4205.25641019;4174.87179474;4172.05128192;4205.12820506
4203.71794865;4202.30769224;4240.12820513;4235.25641026;5059.10256584;1976.28204649;-0.00000896;-0.00000896;4103.46153819;4366.79487208;4174.48717935;4300.12820527;4173.20512807;4174.61538448;4174.48717935;4205.12820506
4202.82051275;4202.17948711;4266.79487187;4235.12820513;4957.30769384;1974.99999521;-0.00000896;-0.00000896;4077.17948684;4398.58974394;4142.82051262;4273.71794879;4168.46153833;4173.07692294;4172.82051269;4205.12820506
4203.97435891;4176.28205115;4270.12820520;4235.12820513;4993.33333494;2002.05127733;-0.00000896;-0.00000896;4102.69230742;4368.33333362;4139.61538441;4274.48717956;4206.02564096;4171.41025628;4172.82051269;4205.12820506
4202.94871788;4176.02564089;4306.92307707;4234.74358975;5061.79487354;1975.25640547;-0.00000896;-0.00000896;4102.69230742;4367.05128233;4206.92307686;4302.43589758;4237.82051282;4174.10256397;4172.94871781;4205.12820506
4202.56410250;4201.66666660;4304.48717963;4235.64102564;5055.76923251;2002.43589271;-0.00000896;-0.00000896;4102.82051255;4370.38461567;4175.64102551;4272.94871802;4237.69230770;4173.84615371;4171.66666653;4205.12820506
4203.20512814;4201.53846147;4273.71794879;4235.51282052;5058.20512995;2005.38461066;-0.00000896;-0.00000896;4077.30769196;4370.12820541;4142.94871774;4300.00000014;4206.15384609;4174.87179474;4172.94871781;4205.12820506
4203.97435891;4202.43589737;4267.56410264;4208.97435891;4961.53846307;1976.66666188;-0.00000896;-0.00000896;4077.05128171;4365.64102592;4234.10256411;4299.87179501;4234.35897436;4173.71794858;4171.41025628;4205.12820506
4203.46153840;4202.56410250;4239.74358975;4208.84615378;5155.76923272;1976.28204649;-0.00000896;-0.00000896;4077.43589709;4366.92307720;4171.28205115;4300.12820527;4204.99999993;4174.10256397;4173.07692294;4205.12820506
