Gyro-X;Gyro-Z;AF3;Gyro-Y;T7;Acc-X;Pz;QualityData_1;QualityData_2;Acc-Z;Acc-Y;T8;Mag-X;AF4;Mag-Z;Mag-Y;Mag-X;Gyro-X 
4202.69230763;4201.92307686;4170.64102551;4234.61538462;4827.17948843;2008.33332861;-0.00000896;-0.00000896;3808.97435807;4463.58974408;4201.15384609;4301.53846168;4108.97435870;4236.79487180;4201.15384609;4205.12820506
4176.15384602;4175.12820499;4136.28205108;4234.35897436;4864.87179620;2008.07691836;-0.00000896;-0.00000896;3781.79487083;4469.35897485;4174.87179474;4302.94871809;4109.74358947;4236.15384616;4202.94871788;4172.30769217
4174.48717935;4174.61538448;4142.05128185;4236.02564103;4862.30769363;2035.89743125;-0.00000896;-0.00000896;3781.66666570;4466.02564152;4201.53846147;4301.28205142;4140.89743569;4237.94871795;4202.43589737;4172.30769217
4174.23076910;4174.99999986;4168.97435884;4237.69230770;4898.07692447;2009.35896964;-0.00000896;-0.00000896;3780.64102467;4466.28205177;4204.61538455;4303.20512835;4136.41025621;4237.69230770;4202.82051275;4172.30769217
4173.20512807;4174.35897422;4141.53846133;4237.82051282;4863.58974491;2009.10255938;-0.00000896;-0.00000896;3780.25640929;4468.58974408;4208.20512814;4301.15384630;4136.02564082;4236.53846154;4202.30769224;4172.30769217
4174.48717935;4173.20512807;4168.71794858;4237.43589744;4864.35897568;2036.41025176;-0.00000896;-0.00000896;3778.97435801;4438.33333375;4175.38461525;4302.05128219;4137.69230749;4236.15384616;4202.56410250;4172.30769217
4174.48717935;4175.12820499;4171.66666653;4238.58974359;4890.89743729;2038.46153381;-0.00000896;-0.00000896;3777.30769134;4464.61538511;4207.05128199;4301.92307707;4168.20512807;4236.41025641;4202.69230763;4172.30769217
4175.51282038;4176.15384602;4172.82051269;4238.58974359;4861.02564235;2009.61537989;-0.00000896;-0.00000896;3778.07692211;4468.84615434;4206.66666660;4302.82051296;4140.89743569;4236.15384616;4202.69230763;4172.30769217
4201.92307686;4176.15384602;4175.51282038;4239.74358975;4890.64102703;2005.25640554;-0.00000896;-0.00000896;3779.61538365;4437.82051324;4205.89743583;4302.94871809;4171.15384602;4237.17948718;4202.69230763;4205.12820506
4202.30769224;4174.35897422;4172.17948704;4239.74358975;4864.35897568;2006.53845682;-0.00000896;-0.00000896;3782.05128108;4463.84615434;4205.12820506;4301.79487194;4143.46153826;4237.05128206;4202.82051275;4205.12820506
4201.53846147;4172.94871781;4174.23076910;4240.12820513;4799.23077042;2036.02563637;-0.00000896;-0.00000896;3781.66666570;4465.00000049;4208.33333327;4302.82051296;4169.10256397;4236.28205129;4205.76923070;4205.12820506
4201.15384609;4173.71794858;4170.12820499;4240.76923077;4989.35897596;2042.69230304;-0.00000896;-0.00000896;3807.82051192;4432.82051324;4172.69230756;4302.05128219;4168.97435884;4237.69230770;4202.56410250;4205.12820506
4174.87179474;4174.10256397;4205.25641019;4239.35897436;4862.43589876;2040.12820048;-0.00000896;-0.00000896;3780.51281954;4435.00000042;4206.92307686;4301.28205142;4202.43589737;4238.07692308;4202.30769224;4172.30769217
4174.48717935;4174.74358961;4202.56410250;4240.00000000;4895.51282191;2038.33332868;-0.00000896;-0.00000896;3780.12820416;4438.07692350;4207.17948711;4302.94871809;4176.28205115;4236.53846154;4201.02564096;4172.30769217
4172.94871781;4174.87179474;4174.48717935;4240.89743590;4857.43589876;2008.71794400;-0.00000896;-0.00000896;3778.84615288;4437.05128247;4202.56410250;4303.84615399;4168.46153833;4238.97435898;4202.17948711;4172.30769217
4172.69230756;4175.38461525;4204.99999993;4241.41025641;4799.48718067;2036.53845689;-0.00000896;-0.00000896;3777.56410160;4465.25641075;4176.15384602;4301.53846168;4171.79487166;4236.66666667;4202.43589737;4172.30769217
4172.69230756;4175.12820499;4202.82051275;4240.89743590;4956.15384769;2039.74358509;-0.00000896;-0.00000896;3776.28205031;4436.41025683;4203.58974352;4301.79487194;4173.07692294;4238.20512821;4202.56410250;4172.30769217
4172.94871781;4201.15384609;4201.41025634;4239.87179488;4825.51282177;2040.12820048;-0.00000896;-0.00000896;3774.87179390;4437.94871837;4206.15384609;4302.82051296;4170.25641012;4237.05128206;4203.58974352;4172.30769217
4174.35897422;4201.92307686;4203.84615378;4237.17948718;4864.35897568;2038.46153381;-0.00000896;-0.00000896;3747.17948614;4436.41025683;4203.58974352;4303.46153860;4173.46153833;4237.43589744;4202.43589737;4172.30769217
4175.38461525;4201.66666660;4203.97435891;4235.25641026;4796.15384734;2008.58973887;-0.00000896;-0.00000896;3745.89743486;4436.66666709;4204.23076917;4302.17948732;4173.97435884;4236.79487180;4202.82051275;4172.30769217
4202.56410250;4201.41025634;4209.10256404;4233.97435898;4795.76923195;2007.17948246;-0.00000896;-0.00000896;3745.38461435;4436.41025683;4205.38461532;4303.97435912;4202.05128199;4237.94871795;4203.20512814;4205.12820506
4204.74358968;4202.69230763;4206.66666660;4208.84615378;4796.53846272;2037.56409791;-0.00000896;-0.00000896;3746.79487076;4437.56410298;4207.94871788;4303.07692322;4203.58974352;4238.46153847;4201.92307686;4205.12820506
4206.66666660;4201.53846147;4175.76923063;4234.10256411;4860.00000132;2039.48717484;-0.00000896;-0.00000896;3746.66666563;4435.64102606;4176.28205115;4302.43589758;4172.17948704;4237.05128206;4202.82051275;4205.12820506
4207.43589737;4202.05128199;4205.51282045;4235.12820513;4730.64102669;2036.02563637;-0.00000896;-0.00000896;3774.48717852;4435.00000042;4174.74358961;4303.58974373;4142.94871774;4236.66666667;4202.94871788;4205.12820506
4208.33333327;4202.05128199;4175.38461525;4236.28205129;4765.64102676;2008.33332861;229.99999153;-0.00000896;3779.10256313;4463.58974408;4203.07692301;4302.43589758;4168.97435884;4237.43589744;4204.35897429;4205.12820506
4207.69230763;4201.53846147;4206.66666660;4235.89743590;4796.15384734;2036.92307227;8276.53847009;-0.00000896;3778.07692211;4434.61538504;4204.74358968;4300.76923091;4203.84615378;4237.05128206;4202.69230763;4205.12820506
4207.69230763;4202.17948711;4206.28205122;4235.64102564;4831.02564228;2037.69230304;8213.20513662;-0.00000896;3777.30769134;4434.48717991;4205.89743583;4303.20512835;4173.97435884;4237.17948718;4201.15384609;4205.12820506
4207.17948711;4202.30769224;4204.23076917;4208.46153840;4825.12820638;2037.05127740;8271.79488035;-0.00000896;3777.43589647;4435.00000042;4175.89743576;4302.30769245;4175.89743576;4237.94871795;4202.56410250;4205.12820506
4206.02564096;4203.97435891;4204.23076917;4234.10256411;4728.71794976;2037.43589278;229.99999153;-0.00000896;3777.05128108;4434.87179529;4175.64102551;4301.15384630;4172.69230756;4237.05128206;4175.64102551;4205.12820506
4205.25641019;4204.48717942;4234.74358975;4234.10256411;4796.53846272;2009.48717477;229.99999153;-0.00000896;3776.79487083;4433.84615427;4235.64102564;4301.53846168;4201.66666660;4237.69230770;4202.82051275;4205.12820506
4204.35897429;4204.61538455;4241.02564103;4234.74358975;4798.97436016;2034.87179022;229.99999153;-0.00000896;3778.20512724;4437.94871837;4237.17948718;4302.43589758;4235.51282052;4238.84615385;4202.82051275;4205.12820506
4204.74358968;4204.48717942;4239.74358975;4236.02564103;4797.30769349;2037.94871330;229.99999153;-0.00000896;3777.94871698;4464.10256459;4236.92307693;4303.58974373;4235.64102564;4237.82051282;4202.30769224;4205.12820506
4204.23076917;4204.87179481;4235.00000000;4236.02564103;4765.51282163;2038.33332868;229.99999153;-0.00000896;3777.56410160;4465.89743639;4202.43589737;4301.15384630;4174.35897422;4237.17948718;4204.74358968;4205.12820506
4204.99999993;4203.58974352;4237.17948718;4236.53846154;4826.53846279;2035.64102099;229.99999153;-0.00000896;3776.79487083;4437.05128247;4206.92307686;4301.79487194;4205.12820506;4236.66666667;4201.66666660;4205.12820506
4204.74358968;4203.97435891;4235.38461539;4234.48717949;4799.10256529;2034.99999535;229.99999153;-0.00000896;3778.71794775;4466.15384664;4207.30769224;4303.84615399;4174.99999986;4238.33333334;4202.05128199;4205.12820506
4204.74358968;4203.20512814;4238.07692308;4235.51282052;4857.69230902;2036.02563637;229.99999153;-0.00000896;3778.07692211;4438.46153888;4234.35897436;4302.30769245;4204.99999993;4237.82051282;4202.94871788;4205.12820506
4205.25641019;4203.33333327;4233.84615385;4234.87179488;4799.35897554;2009.23076451;229.99999153;-0.00000896;3777.30769134;4464.10256459;4208.84615378;4301.28205142;4204.23076917;4238.07692308;4203.20512814;4205.12820506
4204.48717942;4203.46153840;4238.58974359;4208.97435891;4829.87179613;2009.10255938;229.99999153;-0.00000896;3777.69230672;4438.71794914;4207.56410250;4302.43589758;4174.48717935;4237.94871795;4203.97435891;4205.12820506
4204.99999993;4202.94871788;4235.00000000;4234.48717949;4760.51282163;2038.84614919;229.99999153;-0.00000896;3779.35897339;4438.07692350;4207.82051275;4302.30769245;4205.76923070;4237.56410257;4202.56410250;4205.12820506
4204.99999993;4202.94871788;4239.23076923;4236.53846154;4862.05128338;2034.87179022;229.99999153;-0.00000896;3778.20512724;4437.05128247;4236.53846154;4303.33333348;4175.64102551;4237.82051282;4202.69230763;4205.12820506
4204.10256404;4203.97435891;4207.05128199;4236.02564103;4761.79487291;2035.64102099;229.99999153;-0.00000896;3778.84615288;4438.84615427;4202.94871788;4302.94871809;4175.89743576;4238.07692308;4202.94871788;4205.12820506
4204.87179481;4203.46153840;4236.92307693;4236.79487180;4858.58974491;2037.43589278;229.99999153;-0.00000896;3777.56410160;4437.17948760;4234.87179488;4302.94871809;4233.97435898;4237.30769231;4202.69230763;4205.12820506
4205.12820506;4202.30769224;4235.76923077;4236.41025641;4828.97436023;2041.41025176;229.99999153;-0.00000896;3776.15384518;4438.33333375;4205.76923070;4302.69230784;4203.33333327;4238.20512821;4202.94871788;4205.12820506
4203.97435891;4205.64102558;4234.10256411;4236.02564103;4729.10256515;2037.56409791;229.99999153;-0.00000896;3748.84615281;4465.12820562;4205.38461532;4303.84615399;4204.35897429;4237.05128206;4204.48717942;4205.12820506
4205.12820506;4204.61538455;4234.74358975;4235.76923077;4864.74359107;2002.30768759;229.99999153;-0.00000896;3774.48717852;4464.35897485;4206.02564096;4302.56410271;4206.79487173;4237.17948718;4202.43589737;4205.12820506
4205.64102558;4202.56410250;4235.76923077;4234.35897436;4796.53846272;2005.25640554;229.99999153;-0.00000896;3776.41025544;4466.41025690;4202.94871788;4303.97435912;4175.12820499;4237.94871795;4202.69230763;4205.12820506
4204.99999993;4176.15384602;4234.48717949;4235.38461539;4792.30769349;2009.35896964;229.99999153;-0.00000896;3775.89743493;4437.56410298;4202.82051275;4302.17948732;4203.71794865;4238.33333334;4203.33333327;4205.12820506
4205.64102558;4201.53846147;4238.46153847;4234.74358975;4799.23077042;2040.64102099;229.99999153;-0.00000896;3775.38461442;4466.02564152;4208.71794865;4303.33333348;4204.23076917;4237.94871795;4202.43589737;4205.12820506
4204.10256404;4202.94871788;4238.46153847;4234.61538462;4827.17948843;2042.82050817;229.99999153;-0.00000896;3774.87179390;4436.53846196;4207.05128199;4302.17948732;4204.99999993;4237.05128206;4203.07692301;4205.12820506
4204.23076917;4202.56410250;4267.43589751;4209.10256404;4826.28205254;2037.82050817;229.99999153;-0.00000896;3776.02564006;4433.20512863;4205.12820506;4302.94871809;4207.94871788;4238.07692308;4202.69230763;4205.12820506
4203.20512814;4202.43589737;4237.30769231;4234.61538462;4859.23077055;2036.15384150;229.99999153;-0.00000896;3777.05128108;4432.94871837;4235.12820513;4302.56410271;4206.28205122;4237.94871795;4202.94871788;4205.12820506
4203.20512814;4203.97435891;4241.79487180;4208.97435891;4826.28205254;2007.94871323;229.99999153;-0.00000896;3749.48717845;4465.00000049;4207.17948711;4302.43589758;4205.38461532;4236.79487180;4202.82051275;4205.12820506
4202.56410250;4202.43589737;4236.66666667;4234.87179488;4792.30769349;2037.69230304;229.99999153;-0.00000896;3774.87179390;4436.15384657;4207.94871788;4301.53846168;4204.99999993;4237.69230770;4202.30769224;4205.12820506
4203.46153840;4204.10256404;4235.64102564;4208.97435891;4793.97436016;2009.87179015;229.99999153;-0.00000896;3749.23076819;4438.71794914;4203.84615378;4302.56410271;4202.56410250;4237.94871795;4202.69230763;4205.12820506
4204.87179481;4204.48717942;4238.20512821;4208.33333327;4891.02564242;2035.38461073;229.99999153;-0.00000896;3774.87179390;4437.82051324;4208.07692301;4300.25641040;4203.58974352;4236.92307693;4202.69230763;4205.12820506
4204.61538455;4203.71794865;4236.66666667;4233.97435898;4828.46153972;2008.20512348;229.99999153;-0.00000896;3777.05128108;4466.92307741;4203.71794865;4301.15384630;4202.56410250;4238.07692308;4201.79487173;4205.12820506
4206.66666660;4201.92307686;4235.51282052;4208.46153840;4831.79487305;2037.82050817;229.99999153;-0.00000896;3777.69230672;4438.58974401;4201.53846147;4300.76923091;4202.17948711;4237.82051282;4202.56410250;4205.12820506
4206.41025634;4201.92307686;4238.84615385;4209.10256404;4763.33333445;2039.23076458;229.99999153;-0.00000896;3781.53846057;4435.12820555;4203.58974352;4301.28205142;4174.23076910;4236.66666667;4202.82051275;4205.12820506
4206.66666660;4202.43589737;4234.48717949;4209.10256404;4863.33333466;2035.51281586;229.99999153;-0.00000896;3781.66666570;4466.66666716;4203.71794865;4301.02564117;4201.02564096;4238.46153847;4202.82051275;4205.12820506
4206.92307686;4201.66666660;4240.89743590;4234.35897436;4825.00000125;2035.12820048;229.99999153;-0.00000896;3807.56410166;4437.43589786;4206.28205122;4300.64102578;4203.46153840;4237.56410257;4202.05128199;4205.12820506
4206.02564096;4202.56410250;4234.87179488;4234.48717949;4799.10256529;2007.05127733;229.99999153;-0.00000896;3809.48717859;4465.12820562;4175.64102551;4302.82051296;4203.07692301;4237.69230770;4202.43589737;4205.12820506
4205.76923070;4201.41025634;4238.97435898;4235.89743590;4859.74359107;2008.71794400;8305.12821375;-0.00000896;3807.43589654;4467.30769280;4208.07692301;4301.02564117;4205.64102558;4238.20512821;4202.30769224;4205.12820506
4204.61538455;4202.94871788;4238.97435898;4235.51282052;4825.00000125;2010.12820041;8278.33334188;-0.00000896;3782.43589647;4437.17948760;4204.48717942;4304.48717963;4205.25641019;4237.56410257;4202.05128199;4205.12820506
4204.61538455;4202.82051275;4240.89743590;4238.33333334;4827.43589869;2009.23076451;229.99999153;-0.00000896;3781.53846057;4467.17948767;4204.74358968;4302.94871809;4202.05128199;4236.53846154;4202.94871788;4205.12820506
4204.23076917;4202.17948711;4234.48717949;4237.56410257;4858.58974491;2037.69230304;8278.33334188;-0.00000896;3779.61538365;4436.41025683;4173.33333320;4302.05128219;4173.84615371;4238.07692308;4202.69230763;4205.12820506
4204.48717942;4201.92307686;4238.97435898;4238.58974359;4859.74359107;2035.76922612;-0.00000896;-0.00000896;3777.69230672;4464.87179536;4203.33333327;4301.92307707;4173.46153833;4237.17948718;4202.69230763;4205.12820506
4205.51282045;4176.15384602;4238.97435898;4238.97435898;4862.56410389;2036.92307227;-0.00000896;-0.00000896;3775.25640929;4438.46153888;4201.66666660;4301.79487194;4209.10256404;4238.07692308;4202.56410250;4205.12820506
4205.64102558;4201.79487173;4270.12820520;4237.56410257;4857.43589876;2036.79486714;-0.00000896;-0.00000896;3774.99999903;4438.46153888;4176.02564089;4301.41025655;4207.94871788;4237.82051282;4202.05128199;4205.12820506
4206.02564096;4201.28205122;4237.17948718;4237.94871795;4896.92307832;2036.02563637;-0.00000896;-0.00000896;3774.87179390;4437.56410298;4173.58974345;4302.43589758;4204.35897429;4238.33333334;4202.94871788;4205.12820506
4205.76923070;4176.15384602;4240.25641026;4236.79487180;4860.25641158;2035.25640560;-0.00000896;-0.00000896;3774.87179390;4465.64102613;4201.02564096;4302.30769245;4174.74358961;4238.71794872;4202.56410250;4205.12820506
4206.15384609;4175.89743576;4236.66666667;4236.53846154;4891.79487319;2040.51281586;-0.00000896;-0.00000896;3746.02563999;4435.76923119;4203.97435891;4302.30769245;4205.38461532;4236.41025641;4202.69230763;4205.12820506
4206.02564096;4201.41025634;4234.23076923;4234.87179488;4831.02564228;2038.33332868;-0.00000896;-0.00000896;3775.25640929;4433.58974401;4203.58974352;4303.46153860;4201.53846147;4238.71794872;4202.82051275;4205.12820506
4206.41025634;4201.15384609;4237.82051282;4233.97435898;4894.74359114;2035.12820048;-0.00000896;-0.00000896;3748.07692204;4432.43589786;4174.61538448;4301.79487194;4175.51282038;4238.46153847;4201.66666660;4205.12820506
4206.41025634;4202.56410250;4207.05128199;4206.15384609;4829.61538587;2034.87179022;-0.00000896;-0.00000896;3747.56410153;4432.94871837;4171.79487166;4303.46153860;4172.56410243;4237.30769231;4202.56410250;4205.12820506
4206.92307686;4203.20512814;4268.07692315;4206.53846147;4857.94871927;2037.17948253;-0.00000896;-0.00000896;3746.41025537;4431.66666709;4202.30769224;4303.20512835;4175.64102551;4238.58974359;4202.69230763;4205.12820506
4206.92307686;4203.46153840;4239.87179488;4204.99999993;4793.97436016;2038.33332868;-0.00000896;-0.00000896;3747.94871691;4435.12820555;4203.07692301;4303.97435912;4203.84615378;4237.69230770;4202.82051275;4205.12820506
4207.56410250;4203.58974352;4238.71794872;4206.79487173;4824.74359100;2009.99999528;-0.00000896;-0.00000896;3747.43589640;4433.97435940;4175.38461525;4302.82051296;4201.79487173;4238.20512821;4202.69230763;4205.12820506
4207.30769224;4202.94871788;4240.51282052;4207.43589737;4795.51282170;2007.56409784;-0.00000896;-0.00000896;3775.76922980;4437.17948760;4174.10256397;4301.92307707;4204.87179481;4238.46153847;4202.56410250;4205.12820506
4207.43589737;4202.94871788;4239.74358975;4207.17948711;4829.10256536;2038.58973894;-0.00000896;-0.00000896;3779.10256313;4436.79487222;4172.69230756;4302.56410271;4206.28205122;4238.46153847;4203.20512814;4205.12820506
4206.53846147;4204.35897429;4234.35897436;4233.97435898;4827.56410382;2041.41025176;-0.00000896;-0.00000896;3777.94871698;4434.74359016;4174.99999986;4302.05128219;4202.17948711;4237.69230770;4203.71794865;4205.12820506
4208.46153840;4205.51282045;4238.84615385;4207.82051275;4863.33333466;2007.30768759;-0.00000896;-0.00000896;3780.25640929;4437.94871837;4204.61538455;4303.33333348;4206.15384609;4237.69230770;4203.07692301;4205.12820506
4208.20512814;4203.97435891;4235.12820513;4234.10256411;4832.17948843;2008.71794400;-0.00000896;-0.00000896;3808.33333243;4437.82051324;4204.74358968;4302.05128219;4202.56410250;4238.20512821;4202.56410250;4205.12820506
4206.92307686;4203.07692301;4233.84615385;4208.84615378;4861.66666799;2008.07691836;-0.00000896;-0.00000896;3808.84615295;4435.89743632;4174.99999986;4302.43589758;4175.64102551;4238.46153847;4203.33333327;4205.12820506
4206.92307686;4202.56410250;4236.53846154;4208.97435891;4863.58974491;2036.92307227;-0.00000896;-0.00000896;3807.17948628;4438.07692350;4204.48717942;4300.89743604;4202.94871788;4239.74358975;4205.51282045;4205.12820506
4206.66666660;4204.10256404;4206.02564096;4208.97435891;4829.74359100;2040.38461073;-0.00000896;-0.00000896;3781.66666570;4433.07692350;4174.35897422;4302.82051296;4202.94871788;4237.94871795;4202.43589737;4205.12820506
4206.15384609;4204.10256404;4207.43589737;4234.23076923;4858.20512953;2009.87179015;-0.00000896;-0.00000896;3781.79487083;4437.05128247;4170.25641012;4302.05128219;4173.84615371;4238.71794872;4204.10256404;4205.12820506
4205.76923070;4203.97435891;4205.51282045;4234.61538462;4897.69230909;2036.02563637;-0.00000896;-0.00000896;3808.58974269;4466.53846203;4169.87179474;4303.33333348;4201.15384609;4237.56410257;4202.05128199;4205.12820506
4206.53846147;4204.10256404;4238.71794872;4235.76923077;4831.66666792;2009.74358502;-0.00000896;-0.00000896;3807.17948628;4465.25641075;4201.41025634;4302.69230784;4204.10256404;4237.82051282;4202.43589737;4205.12820506
4206.02564096;4203.20512814;4238.71794872;4235.89743590;4894.61538601;2038.07691843;-0.00000896;-0.00000896;3782.05128108;4463.84615434;4204.23076917;4302.05128219;4207.30769224;4237.17948718;4205.76923070;4205.12820506
4205.51282045;4203.84615378;4266.79487187;4236.28205129;4857.43589876;2037.17948253;229.99999153;-0.00000896;3780.89743493;4464.35897485;4204.74358968;4303.58974373;4237.56410257;4237.56410257;4202.30769224;4205.12820506
4207.56410250;4203.07692301;4241.15384616;4235.64102564;4924.87179633;2035.12820048;229.99999153;-0.00000896;3780.89743493;4464.48717998;4203.71794865;4301.92307707;4234.48717949;4237.43589744;4201.28205122;4205.12820506
4207.05128199;4202.94871788;4238.46153847;4235.25641026;4860.38461671;2037.30768766;229.99999153;-0.00000896;3780.89743493;4438.33333375;4169.23076910;4301.15384630;4208.58974352;4237.43589744;4202.05128199;4205.12820506
4206.41025634;4203.46153840;4204.61538455;4236.66666667;4957.69230922;2006.79486707;229.99999153;-0.00000896;3779.87179390;4437.17948760;4140.89743569;4302.30769245;4176.15384602;4237.82051282;4202.94871788;4205.12820506
4205.89743583;4203.71794865;4240.51282052;4237.30769231;4832.17948843;2035.51281586;8272.17949573;-0.00000896;3780.89743493;4464.48717998;4174.74358961;4302.94871809;4206.15384609;4238.71794872;4202.43589737;4205.12820506
4205.76923070;4203.07692301;4237.94871795;4236.92307693;4931.15384762;2037.17948253;8275.12821368;-0.00000896;3779.61538365;4438.46153888;4203.33333327;4301.41025655;4207.56410250;4237.17948718;4201.79487173;4205.12820506
4206.66666660;4202.69230763;4267.94871802;4236.53846154;4793.97436016;2038.20512355;229.99999153;-0.00000896;3779.48717852;4437.30769273;4205.25641019;4302.69230784;4234.61538462;4238.33333334;4202.30769224;4205.12820506
4206.92307686;4202.05128199;4239.87179488;4236.92307693;4960.51282205;2007.82050810;8275.12821368;-0.00000896;3778.58974262;4463.97435946;4203.20512814;4301.79487194;4234.74358975;4238.84615385;4201.15384609;4205.12820506
4206.41025634;4201.92307686;4267.30769238;4236.66666667;4865.12820645;2035.25640560;229.99999153;-0.00000896;3777.17948621;4438.71794914;4202.56410250;4303.33333348;4233.97435898;4238.20512821;4202.30769224;4205.12820506
4205.12820506;4202.82051275;4236.66666667;4237.69230770;4895.76923216;2034.87179022;8275.12821368;-0.00000896;3777.82051185;4464.48717998;4142.82051262;4302.43589758;4202.94871788;4237.30769231;4203.97435891;4205.12820506
4204.10256404;4203.07692301;4266.79487187;4236.53846154;4892.82051421;2037.82050817;229.99999153;-0.00000896;3776.53846057;4436.02564145;4201.28205122;4302.94871809;4206.53846147;4237.82051282;4202.69230763;4205.12820506
4204.48717942;4202.69230763;4238.97435898;4235.76923077;4864.10256543;2035.76922612;8275.12821368;-0.00000896;3776.66666570;4437.82051324;4171.41025628;4302.94871809;4205.38461532;4237.94871795;4202.82051275;4205.12820506
4204.48717942;4202.69230763;4269.87179495;4236.15384616;4930.25641172;2035.25640560;229.99999153;-0.00000896;3775.89743493;4463.84615434;4208.20512814;4300.76923091;4239.35897436;4237.82051282;4202.30769224;4205.12820506
4204.35897429;4202.30769224;4268.71794879;4235.76923077;4864.48718081;2037.05127740;8275.12821368;-0.00000896;3776.92307595;4465.12820562;4203.20512814;4302.05128219;4236.79487180;4238.84615385;4202.94871788;4205.12820506
4203.20512814;4202.17948711;4240.25641026;4235.76923077;4894.35897575;2034.87179022;229.99999153;-0.00000896;3775.76922980;4438.33333375;4172.82051269;4301.66666681;4208.07692301;4237.94871795;4202.94871788;4205.12820506
4203.33333327;4202.05128199;4241.02564103;4234.74358975;4897.94871934;2037.17948253;8275.12821368;-0.00000896;3776.02564006;4437.30769273;4170.64102551;4303.46153860;4203.71794865;4237.82051282;4202.17948711;4205.12820506
4203.97435891;4202.56410250;4208.97435891;4209.10256404;4865.38461671;2037.43589278;229.99999153;-0.00000896;3775.12820416;4434.61538504;4168.20512807;4301.92307707;4201.79487173;4237.43589744;4201.79487173;4205.12820506
4203.46153840;4202.43589737;4238.84615385;4208.71794865;4923.07692454;2008.84614912;8275.12821368;-0.00000896;3777.43589647;4466.79487229;4174.61538448;4304.10256425;4175.38461525;4237.43589744;4202.56410250;4205.12820506
4203.58974352;4201.53846147;4235.64102564;4234.61538462;4826.41025766;2036.66666201;229.99999153;-0.00000896;3776.53846057;4465.25641075;4172.94871781;4303.20512835;4203.07692301;4237.94871795;4203.46153840;4205.12820506
4203.84615378;4202.56410250;4266.66666674;4233.84615385;4865.00000132;2009.48717477;8275.12821368;-0.00000896;3775.51281954;4437.17948760;4173.97435884;4301.92307707;4208.07692301;4237.17948718;4202.94871788;4205.12820506
4203.97435891;4201.53846147;4235.76923077;4233.84615385;4924.87179633;2037.43589278;229.99999153;-0.00000896;3778.71794775;4438.20512863;4174.99999986;4300.76923091;4207.69230763;4237.05128206;4205.51282045;4205.12820506
4204.61538455;4202.05128199;4233.84615385;4208.97435891;4826.53846279;2009.48717477;8275.12821368;-0.00000896;3778.20512724;4437.82051324;4168.58974345;4303.58974373;4176.15384602;4238.07692308;4202.43589737;4205.12820506
4204.10256404;4202.17948711;4240.12820513;4234.10256411;4897.17948857;2038.46153381;229.99999153;-0.00000896;3777.69230672;4438.71794914;4168.58974345;4302.56410271;4202.82051275;4238.71794872;4202.94871788;4205.12820506
4204.74358968;4202.69230763;4238.84615385;4234.23076923;4831.41025766;2035.89743125;8275.12821368;-0.00000896;3777.69230672;4434.23076965;4169.35897422;4302.56410271;4205.51282045;4237.43589744;4201.79487173;4205.12820506
4205.12820506;4203.46153840;4239.48717949;4208.71794865;4924.61538608;2036.28204663;229.99999153;-0.00000896;3778.33333236;4438.33333375;4173.97435884;4303.07692322;4208.97435891;4238.33333334;4202.43589737;4205.12820506
4205.51282045;4202.05128199;4240.64102564;4235.25641026;4828.46153972;2035.51281586;8275.12821368;-0.00000896;3777.56410160;4463.84615434;4170.89743576;4301.92307707;4206.66666660;4237.43589744;4202.69230763;4205.12820506
4205.51282045;4202.69230763;4239.48717949;4234.23076923;4926.15384762;2036.02563637;229.99999153;-0.00000896;3777.94871698;4436.15384657;4175.12820499;4302.43589758;4234.10256411;4238.33333334;4202.82051275;4205.12820506
4205.12820506;4203.07692301;4240.38461539;4235.64102564;4892.56410396;2036.92307227;8275.12821368;-0.00000896;3779.61538365;4437.17948760;4170.64102551;4302.94871809;4204.61538455;4237.82051282;4202.17948711;4205.12820506
4206.41025634;4202.05128199;4235.51282052;4235.00000000;4891.79487319;2040.64102099;229.99999153;-0.00000896;3779.48717852;4463.84615434;4169.99999986;4303.07692322;4202.30769224;4237.94871795;4202.43589737;4205.12820506
4205.51282045;4203.58974352;4268.33333341;4235.25641026;4857.82051414;2008.97435425;8275.12821368;-0.00000896;3777.43589647;4437.56410298;4171.92307679;4301.41025655;4202.56410250;4237.69230770;4202.69230763;4205.12820506
4206.53846147;4202.69230763;4239.74358975;4234.10256411;4923.33333480;2005.38461066;229.99999153;-0.00000896;3780.25640929;4435.76923119;4140.76923056;4302.30769245;4203.20512814;4237.43589744;4202.69230763;4205.12820506
4206.41025634;4201.41025634;4268.71794879;4235.64102564;4864.10256543;2007.56409784;8275.12821368;-0.00000896;3780.76922980;4433.20512863;4172.82051269;4301.92307707;4204.61538455;4238.84615385;4203.97435891;4205.12820506
4205.51282045;4176.28205115;4234.61538462;4234.35897436;4865.00000132;2035.89743125;229.99999153;-0.00000896;3778.84615288;4437.56410298;4169.61538448;4302.94871809;4203.20512814;4237.43589744;4202.69230763;4205.12820506
4205.64102558;4201.66666660;4207.17948711;4234.10256411;4893.07692447;2039.10255945;8310.64103426;-0.00000896;3778.33333236;4437.30769273;4141.92307672;4303.84615399;4174.35897422;4238.20512821;4202.56410250;4205.12820506
4204.99999993;4201.53846147;4207.43589737;4235.76923077;4864.10256543;2036.41025176;8272.82052137;-0.00000896;3779.23076826;4433.97435940;4168.20512807;4303.33333348;4172.30769217;4239.10256411;4203.20512814;4205.12820506
4205.51282045;4203.33333327;4239.35897436;4235.38461539;4896.92307832;2037.82050817;8308.46154708;-0.00000896;3778.46153749;4438.33333375;4173.84615371;4301.02564117;4203.07692301;4236.92307693;4202.82051275;4205.12820506
4204.99999993;4202.82051275;4239.35897436;4236.66666667;4892.05128344;2036.28204663;229.99999153;-0.00000896;3777.05128108;4434.10256452;4175.89743576;4300.76923091;4203.58974352;4236.66666667;4202.69230763;4205.12820506
4204.35897429;4203.20512814;4240.38461539;4236.15384616;4860.12820645;2036.53845689;229.99999153;-0.00000896;3778.71794775;4437.30769273;4201.41025634;4301.28205142;4204.99999993;4238.84615385;4202.94871788;4205.12820506
4204.87179481;4203.20512814;4241.53846154;4235.00000000;4828.71794997;2037.56409791;229.99999153;-0.00000896;3776.79487083;4436.53846196;4171.66666653;4302.30769245;4202.94871788;4238.20512821;4202.56410250;4205.12820506
4205.76923070;4203.71794865;4234.10256411;4235.51282052;4894.35897575;2035.89743125;229.99999153;-0.00000896;3777.30769134;4436.92307734;4140.38461518;4301.02564117;4174.87179474;4237.94871795;4202.82051275;4205.12820506
4206.79487173;4203.33333327;4241.41025641;4235.00000000;4865.51282184;2035.12820048;-0.00000896;-0.00000896;3777.82051185;4436.28205170;4142.30769210;4301.02564117;4201.79487173;4237.94871795;4203.07692301;4205.12820506
4205.51282045;4202.82051275;4204.10256404;4234.48717949;4892.05128344;2037.56409791;-0.00000896;-0.00000896;3777.82051185;4438.58974401;4138.84615364;4302.82051296;4172.82051269;4238.33333334;4202.56410250;4205.12820506
4207.05128199;4202.56410250;4233.84615385;4235.64102564;4891.41025780;2009.61537989;-0.00000896;-0.00000896;3779.87179390;4435.25641068;4169.99999986;4301.53846168;4176.28205115;4238.97435898;4202.56410250;4205.12820506
4206.02564096;4203.33333327;4236.66666667;4235.25641026;4859.74359107;2038.07691843;-0.00000896;-0.00000896;3779.10256313;4435.25641068;4172.69230756;4302.82051296;4174.10256397;4238.33333334;4202.43589737;4205.12820506
4205.89743583;4203.33333327;4234.74358975;4235.51282052;4863.71795004;2008.97435425;-0.00000896;-0.00000896;3780.12820416;4436.53846196;4171.41025628;4302.82051296;4202.69230763;4237.56410257;4202.69230763;4205.12820506
4205.38461532;4202.94871788;4238.46153847;4235.76923077;4891.92307832;2009.61537989;-0.00000896;-0.00000896;3779.10256313;4463.84615434;4142.30769210;4301.66666681;4201.15384609;4238.20512821;4202.69230763;4205.12820506
4205.51282045;4203.07692301;4235.25641026;4235.51282052;4891.15384755;2006.92307220;-0.00000896;-0.00000896;3780.12820416;4437.30769273;4143.46153826;4302.05128219;4201.28205122;4238.07692308;4202.43589737;4205.12820506
4204.35897429;4202.43589737;4236.66666667;4236.41025641;4924.48718095;2008.07691836;-0.00000896;-0.00000896;3781.28205031;4438.46153888;4173.58974345;4302.17948732;4201.66666660;4238.46153847;4203.20512814;4205.12820506
4204.48717942;4202.56410250;4240.25641026;4235.25641026;4799.74359093;2038.07691843;-0.00000896;-0.00000896;3778.33333236;4436.41025683;4173.84615371;4302.82051296;4202.30769224;4238.07692308;4202.82051275;4205.12820506
4204.23076917;4203.46153840;4241.28205129;4235.76923077;4956.53846307;2034.87179022;-0.00000896;-0.00000896;3778.71794775;4437.82051324;4175.12820499;4301.79487194;4208.07692301;4237.82051282;4202.56410250;4205.12820506
4204.48717942;4202.17948711;4239.74358975;4236.66666667;4893.97436037;2037.56409791;-0.00000896;-0.00000896;3778.84615288;4437.43589786;4171.79487166;4303.84615399;4204.48717942;4236.53846154;4202.56410250;4205.12820506
4204.74358968;4202.69230763;4234.23076923;4237.56410257;4927.56410403;2009.48717477;-0.00000896;-0.00000896;3777.43589647;4434.10256452;4138.20512800;4300.25641040;4172.94871781;4238.33333334;4201.28205122;4205.12820506
4205.38461532;4202.17948711;4234.61538462;4236.79487180;4865.38461671;2008.46153374;-0.00000896;-0.00000896;3776.92307595;4438.07692350;4138.84615364;4302.30769245;4175.12820499;4239.23076923;4202.56410250;4205.12820506
4205.76923070;4202.17948711;4208.46153840;4236.92307693;4898.33333473;2035.64102099;-0.00000896;-0.00000896;3774.99999903;4466.53846203;4143.20512800;4303.33333348;4171.92307679;4238.33333334;4202.56410250;4205.12820506
4205.89743583;4201.41025634;4237.43589744;4236.92307693;4859.23077055;2035.38461073;-0.00000896;-0.00000896;3776.02564006;4437.94871837;4174.10256397;4301.79487194;4172.69230756;4237.82051282;4202.17948711;4205.12820506
4205.25641019;4201.02564096;4237.17948718;4236.41025641;4930.64102710;2038.07691843;-0.00000896;-0.00000896;3777.43589647;4433.84615427;4174.48717935;4303.46153860;4206.53846147;4238.84615385;4204.74358968;4205.12820506
4205.12820506;4202.05128199;4240.00000000;4236.66666667;4923.07692454;2009.35896964;-0.00000896;-0.00000896;3778.07692211;4437.17948760;4170.89743576;4302.17948732;4206.15384609;4237.56410257;4203.07692301;4205.12820506
4205.25641019;4201.15384609;4206.53846147;4235.00000000;4892.94871934;2035.38461073;-0.00000896;-0.00000896;3777.43589647;4437.56410298;4140.51282031;4302.43589758;4176.28205115;4238.71794872;4203.07692301;4205.12820506
4203.33333327;4202.30769224;4238.84615385;4236.53846154;4893.20512960;2035.12820048;-0.00000896;-0.00000896;3776.92307595;4434.10256452;4169.35897422;4302.30769245;4171.92307679;4237.43589744;4201.02564096;4205.12820506
4203.58974352;4202.56410250;4267.56410264;4234.74358975;4862.69230902;2035.25640560;-0.00000896;-0.00000896;3777.05128108;4437.82051324;4202.05128199;4303.33333348;4203.58974352;4237.05128206;4203.20512814;4205.12820506
4203.97435891;4201.92307686;4240.76923077;4235.89743590;4894.10256550;2035.25640560;-0.00000896;-0.00000896;3775.12820416;4435.12820555;4174.10256397;4302.56410271;4201.02564096;4238.07692308;4202.56410250;4205.12820506
4203.20512814;4202.82051275;4269.23076930;4235.12820513;4925.25641172;2037.43589278;-0.00000896;-0.00000896;3774.61538365;4436.02564145;4172.69230756;4303.07692322;4204.74358968;4238.33333334;4202.69230763;4205.12820506
4203.97435891;4203.33333327;4235.64102564;4234.48717949;4860.38461671;2036.53845689;-0.00000896;-0.00000896;3775.51281954;4435.64102606;4142.69230749;4304.23076937;4202.69230763;4237.56410257;4203.58974352;4205.12820506
4204.48717942;4203.07692301;4234.23076923;4234.87179488;4928.46153992;2038.33332868;-0.00000896;-0.00000896;3774.87179390;4436.15384657;4171.02564089;4302.56410271;4173.33333320;4238.33333334;4202.30769224;4205.12820506
4205.25641019;4202.05128199;4235.76923077;4234.61538462;4896.66666806;2008.84614912;229.99999153;-0.00000896;3775.64102467;4437.43589786;4140.51282031;4300.64102578;4202.69230763;4237.56410257;4202.82051275;4205.12820506
4205.38461532;4201.02564096;4236.79487180;4234.23076923;4896.92307832;2036.02563637;8278.46154701;-0.00000896;3776.15384518;4433.46153888;4168.58974345;4302.05128219;4175.64102551;4237.82051282;4202.43589737;4205.12820506
4205.89743583;4202.30769224;4233.97435898;4233.97435898;4956.79487333;2008.33332861;8240.00000848;-0.00000896;3777.43589647;4437.56410298;4170.51282038;4303.07692322;4173.20512807;4237.17948718;4202.30769224;4205.12820506
4205.25641019;4202.17948711;4267.56410264;4235.25641026;4829.61538587;2036.41025176;8278.46154701;-0.00000896;3778.46153749;4434.23076965;4172.17948704;4302.30769245;4206.53846147;4237.05128206;4203.71794865;4205.12820506
4205.64102558;4202.56410250;4234.23076923;4235.25641026;4928.33333480;2040.51281586;229.99999153;-0.00000896;3778.20512724;4435.51282093;4168.58974345;4303.20512835;4201.41025634;4238.58974359;4202.17948711;4205.12820506
4204.61538455;4203.33333327;4237.56410257;4235.12820513;4897.82051421;2037.69230304;229.99999153;-0.00000896;3777.43589647;4435.76923119;4174.87179474;4301.53846168;4207.69230763;4237.94871795;4203.07692301;4205.12820506
4203.97435891;4203.20512814;4238.07692308;4233.97435898;4891.02564242;2007.94871323;229.99999153;-0.00000896;3778.33333236;4435.64102606;4171.02564089;4303.20512835;4174.35897422;4237.94871795;4202.17948711;4205.12820506
4205.25641019;4201.92307686;4236.28205129;4235.00000000;4956.92307846;2004.23076451;229.99999153;-0.00000896;3779.74358877;4438.07692350;4169.48717935;4301.92307707;4203.07692301;4237.56410257;4202.30769224;4205.12820506
4204.61538455;4201.66666660;4237.30769231;4235.25641026;4826.92307818;2034.99999535;229.99999153;-0.00000896;3779.74358877;4436.53846196;4170.89743576;4301.92307707;4203.71794865;4238.58974359;4202.30769224;4205.12820506
4204.61538455;4202.05128199;4208.97435891;4234.74358975;4929.74359121;2036.28204663;229.99999153;-0.00000896;3777.30769134;4431.66666709;4170.64102551;4303.58974373;4175.76923063;4238.46153847;4176.15384602;4205.12820506
4204.87179481;4201.66666660;4202.30769224;4234.87179488;4890.38461678;2039.87179022;229.99999153;-0.00000896;3778.58974262;4435.76923119;4168.97435884;4303.46153860;4170.64102551;4238.71794872;4202.94871788;4205.12820506
4204.87179481;4203.07692301;4236.28205129;4235.25641026;4861.15384748;2037.56409791;229.99999153;-0.00000896;3778.97435801;4431.92307734;4176.15384602;4302.56410271;4176.15384602;4238.58974359;4202.69230763;4205.12820506
4204.10256404;4202.94871788;4201.92307686;4234.74358975;4926.79487326;2037.94871330;229.99999153;-0.00000896;3778.33333236;4434.35897478;4142.05128185;4302.82051296;4172.30769217;4236.66666667;4202.05128199;4205.12820506
4204.23076917;4202.30769224;4233.97435898;4236.02564103;4827.17948843;2034.99999535;229.99999153;-0.00000896;3777.69230672;4437.30769273;4170.25641012;4302.43589758;4176.15384602;4239.48717949;4202.69230763;4205.12820506
4204.87179481;4203.07692301;4203.20512814;4235.76923077;4929.35897582;2038.46153381;229.99999153;-0.00000896;3776.79487083;4434.35897478;4175.64102551;4302.43589758;4201.15384609;4238.20512821;4202.94871788;4205.12820506
4204.87179481;4204.23076917;4205.89743583;4234.48717949;4858.07692440;2035.51281586;229.99999153;-0.00000896;3777.17948621;4436.92307734;4171.79487166;4304.23076937;4172.94871781;4238.07692308;4202.17948711;4205.12820506
4206.02564096;4203.07692301;4201.53846147;4235.25641026;4924.10256557;2007.17948246;229.99999153;-0.00000896;3775.64102467;4465.12820562;4170.89743576;4301.28205142;4174.10256397;4237.82051282;4175.76923063;4205.12820506
4206.41025634;4202.43589737;4171.66666653;4208.97435891;4829.48718074;2035.25640560;229.99999153;-0.00000896;3779.74358877;4436.15384657;4171.41025628;4303.71794886;4168.97435884;4236.79487180;4202.82051275;4205.12820506
4205.64102558;4202.94871788;4202.43589737;4235.64102564;4861.92307825;2009.87179015;229.99999153;-0.00000896;3778.97435801;4435.76923119;4173.20512807;4302.30769245;4170.89743576;4238.58974359;4203.71794865;4205.12820506
4206.02564096;4201.92307686;4203.58974352;4235.64102564;4956.41025794;2008.07691836;229.99999153;-0.00000896;3779.10256313;4435.12820555;4174.23076910;4303.07692322;4173.33333320;4239.10256411;4202.43589737;4205.12820506
4204.99999993;4202.94871788;4204.48717942;4236.02564103;4795.25641144;2039.48717484;229.99999153;-0.00000896;3780.51281954;4435.51282093;4173.46153833;4301.66666681;4202.69230763;4236.92307693;4176.02564089;4205.12820506
4204.87179481;4203.20512814;4203.71794865;4236.66666667;4956.66666820;2036.28204663;229.99999153;-0.00000896;3779.10256313;4438.33333375;4202.05128199;4301.41025655;4170.76923063;4237.17948718;4202.56410250;4205.12820506
4204.48717942;4203.71794865;4201.02564096;4234.74358975;4797.05128324;2007.17948246;229.99999153;-0.00000896;3779.61538365;4435.25641068;4170.51282038;4303.07692322;4174.23076910;4237.94871795;4202.30769224;4205.12820506
4204.10256404;4202.56410250;4201.92307686;4235.38461539;4960.25641179;2009.35896964;229.99999153;-0.00000896;3777.82051185;4434.48717991;4203.20512814;4302.17948732;4172.43589730;4236.79487180;4202.69230763;4205.12820506
4203.97435891;4201.66666660;4201.02564096;4235.76923077;4831.79487305;2037.05127740;229.99999153;-0.00000896;3776.02564006;4466.41025690;4171.53846140;4304.35897450;4201.28205122;4238.20512821;4202.69230763;4205.12820506
4203.71794865;4201.66666660;4171.53846140;4235.12820513;4931.02564249;2037.43589278;229.99999153;-0.00000896;3777.17948621;4433.97435940;4171.41025628;4301.53846168;4169.99999986;4236.79487180;4202.30769224;4205.12820506
4205.51282045;4202.05128199;4203.97435891;4235.12820513;4826.28205254;2009.87179015;229.99999153;-0.00000896;3776.15384518;4463.97435946;4202.69230763;4301.66666681;4206.66666660;4238.97435898;4202.43589737;4205.12820506
4204.87179481;4202.30769224;4205.12820506;4236.02564103;4927.05128351;2038.33332868;229.99999153;-0.00000896;3776.79487083;4433.07692350;4171.79487166;4301.28205142;4174.74358961;4237.94871795;4175.64102551;4205.12820506
4204.99999993;4203.20512814;4204.48717942;4235.64102564;4864.87179620;2036.02563637;229.99999153;-0.00000896;3776.02564006;4435.64102606;4172.43589730;4300.89743604;4203.71794865;4237.69230770;4202.17948711;4205.12820506
4205.38461532;4201.53846147;4175.89743576;4236.15384616;4925.12820659;2035.12820048;229.99999153;-0.00000896;3774.35897339;4435.64102606;4203.97435891;4302.30769245;4205.12820506;4238.07692308;4202.43589737;4205.12820506
4205.12820506;4202.05128199;4203.58974352;4235.76923077;4831.92307818;2037.56409791;229.99999153;-0.00000896;3776.41025544;4434.74359016;4202.17948711;4302.94871809;4172.17948704;4237.30769231;4202.43589737;4205.12820506
4205.51282045;4201.41025634;4201.66666660;4235.00000000;4896.79487319;2009.48717477;229.99999153;-0.00000896;3776.02564006;4463.84615434;4170.89743576;4302.17948732;4172.05128192;4237.05128206;4202.43589737;4205.12820506
4205.76923070;4201.53846147;4201.02564096;4234.48717949;4827.82051408;2035.89743125;229.99999153;-0.00000896;3777.30769134;4405.51282086;4168.33333320;4302.43589758;4172.94871781;4236.66666667;4202.56410250;4205.12820506
4205.38461532;4201.28205122;4205.38461532;4234.74358975;4928.20512967;2009.61537989;229.99999153;-0.00000896;3778.33333236;4434.10256452;4169.35897422;4302.69230784;4202.17948711;4236.66666667;4202.56410250;4205.12820506
4204.87179481;4202.05128199;4175.51282038;4208.84615378;4860.64102697;2009.87179015;229.99999153;-0.00000896;3778.71794775;4436.02564145;4143.33333313;4301.92307707;4201.28205122;4236.66666667;4202.69230763;4205.12820506
4204.10256404;4202.17948711;4234.48717949;4235.00000000;4895.12820652;2038.58973894;229.99999153;-0.00000896;3779.23076826;4433.20512863;4202.94871788;4302.56410271;4208.84615378;4237.05128206;4202.94871788;4205.12820506
4203.71794865;4201.79487173;4206.02564096;4234.74358975;4896.79487319;2009.61537989;229.99999153;-0.00000896;3777.56410160;4433.71794914;4203.07692301;4302.56410271;4206.53846147;4237.17948718;4202.43589737;4205.12820506
4203.84615378;4202.05128199;4205.38461532;4234.10256411;4858.58974491;2036.02563637;8306.66667529;-0.00000896;3776.92307595;4436.15384657;4173.46153833;4302.17948732;4204.99999993;4237.43589744;4202.56410250;4205.12820506
4204.10256404;4202.69230763;4204.48717942;4235.64102564;4923.46153992;2037.43589278;8274.48718804;-0.00000896;3775.76922980;4432.17948760;4169.87179474;4301.79487194;4202.17948711;4236.66666667;4203.33333327;4205.12820506
4205.25641019;4202.94871788;4206.53846147;4234.61538462;4865.25641158;2035.51281586;229.99999153;-0.00000896;3776.53846057;4437.56410298;4143.46153826;4301.92307707;4201.66666660;4237.30769231;4202.56410250;4205.12820506
4204.87179481;4202.94871788;4205.51282045;4235.89743590;4894.87179627;2036.28204663;8274.48718804;-0.00000896;3776.53846057;4431.28205170;4169.23076910;4302.43589758;4202.43589737;4238.33333334;4202.43589737;4205.12820506
4205.25641019;4201.92307686;4202.82051275;4234.35897436;4896.79487319;2010.12820041;-0.00000896;-0.00000896;3778.07692211;4435.51282093;4170.89743576;4301.66666681;4201.53846147;4237.17948718;4202.43589737;4205.12820506
4204.74358968;4202.94871788;4207.69230763;4234.48717949;4857.69230902;2037.43589278;-0.00000896;-0.00000896;3778.33333236;4433.07692350;4173.84615371;4300.51282066;4202.05128199;4237.82051282;4202.43589737;4205.12820506
4205.51282045;4202.05128199;4236.02564103;4235.89743590;4895.64102703;2009.87179015;-0.00000896;-0.00000896;3779.61538365;4436.41025683;4172.30769217;4303.20512835;4205.76923070;4236.28205129;4202.69230763;4205.12820506
4205.12820506;4201.66666660;4237.05128206;4235.89743590;4862.94871927;2037.56409791;-0.00000896;-0.00000896;3807.43589654;4405.89743625;4173.84615371;4302.17948732;4208.07692301;4238.33333334;4202.56410250;4205.12820506
4204.23076917;4201.53846147;4175.89743576;4236.53846154;4928.46153992;2036.15384150;-0.00000896;-0.00000896;3782.05128108;4405.64102599;4143.33333313;4301.53846168;4171.53846140;4237.43589744;4202.05128199;4205.12820506
4203.58974352;4202.69230763;4234.35897436;4238.20512821;4864.74359107;2034.87179022;-0.00000896;-0.00000896;3779.74358877;4435.51282093;4170.89743576;4301.15384630;4206.15384609;4237.05128206;4202.69230763;4205.12820506
4202.30769224;4202.30769224;4238.33333334;4236.92307693;4962.05128358;2038.07691843;-0.00000896;-0.00000896;3778.58974262;4436.53846196;4175.64102551;4299.87179501;4208.07692301;4236.92307693;4203.97435891;4205.12820506
4202.43589737;4202.94871788;4240.38461539;4236.41025641;4830.38461664;2041.79486714;-0.00000896;-0.00000896;3774.48717852;4431.53846196;4174.23076910;4302.30769245;4204.48717942;4237.69230770;4202.43589737;4205.12820506
4203.71794865;4204.23076917;4204.35897429;4236.41025641;4958.46153999;2009.23076451;-0.00000896;-0.00000896;3747.94871691;4435.51282093;4174.48717935;4302.69230784;4202.17948711;4235.89743590;4175.64102551;4205.12820506
4204.74358968;4204.23076917;4237.94871795;4235.64102564;4797.43589862;2009.99999528;-0.00000896;-0.00000896;3746.41025537;4432.82051324;4171.79487166;4301.15384630;4205.38461532;4236.28205129;4202.30769224;4205.12820506
4205.64102558;4202.56410250;4205.64102558;4235.76923077;4925.38461685;2005.51281579;-0.00000896;-0.00000896;3748.71794768;4436.02564145;4173.07692294;4302.17948732;4174.23076910;4236.02564103;4205.25641019;4205.12820506
4206.66666660;4201.02564096;4206.28205122;4235.51282052;4891.02564242;2036.02563637;-0.00000896;-0.00000896;3749.23076819;4433.46153888;4142.82051262;4302.05128219;4174.87179474;4237.82051282;4202.69230763;4205.12820506
4206.53846147;4201.41025634;4206.41025634;4235.51282052;4862.69230902;2037.56409791;-0.00000896;-0.00000896;3749.61538358;4436.02564145;4171.41025628;4302.69230784;4175.76923063;4238.33333334;4202.69230763;4205.12820506
4206.15384609;4202.43589737;4208.46153840;4234.87179488;4926.02564249;2040.25640560;-0.00000896;-0.00000896;3774.74358877;4432.43589786;4175.89743576;4302.43589758;4204.61538455;4238.33333334;4202.30769224;4205.12820506
4205.25641019;4202.82051275;4209.10256404;4234.10256411;4766.79487291;2035.64102099;-0.00000896;-0.00000896;3776.79487083;4434.23076965;4201.92307686;4302.17948732;4176.02564089;4238.07692308;4202.56410250;4205.12820506
4204.99999993;4203.58974352;4208.46153840;4233.97435898;4925.38461685;2039.74358509;-0.00000896;-0.00000896;3777.94871698;4406.02564138;4173.33333320;4303.33333348;4202.94871788;4237.05128206;4202.56410250;4205.12820506
4203.07692301;4203.46153840;4237.17948718;4235.12820513;4865.12820645;2037.82050817;-0.00000896;-0.00000896;3776.79487083;4463.97435946;4172.82051269;4302.43589758;4203.58974352;4236.15384616;4203.20512814;4205.12820506
4204.35897429;4202.94871788;4204.48717942;4234.74358975;4863.84615517;2036.15384150;-0.00000896;-0.00000896;3776.92307595;4434.48717991;4171.41025628;4303.97435912;4175.25641012;4237.30769231;4203.07692301;4205.12820506
4204.23076917;4203.84615378;4236.02564103;4233.84615385;4865.00000132;2035.89743125;-0.00000896;-0.00000896;3778.07692211;4438.71794914;4173.07692294;4301.53846168;4205.12820506;4236.28205129;4202.69230763;4205.12820506
4204.35897429;4202.30769224;4267.30769238;4234.23076923;4794.87179606;2036.41025176;-0.00000896;-0.00000896;3777.56410160;4435.76923119;4207.17948711;4301.92307707;4207.82051275;4236.66666667;4203.71794865;4205.12820506
4204.61538455;4202.82051275;4207.94871788;4207.82051275;4923.71795018;2009.87179015;-0.00000896;-0.00000896;3780.38461442;4432.82051324;4201.02564096;4303.71794886;4201.79487173;4236.92307693;4202.30769224;4205.12820506
4204.10256404;4201.53846147;4207.56410250;4234.48717949;4860.76923209;2010.12820041;-0.00000896;-0.00000896;3780.38461442;4437.82051324;4173.58974345;4302.17948732;4172.82051269;4237.30769231;4203.33333327;4205.12820506
4204.23076917;4201.15384609;4205.64102558;4234.74358975;4890.25641165;2008.46153374;-0.00000896;-0.00000896;3781.41025544;4435.12820555;4171.79487166;4302.17948732;4173.84615371;4237.69230770;4202.30769224;4205.12820506
4202.05128199;4176.02564089;4235.00000000;4235.00000000;4861.28205261;2035.76922612;-0.00000896;-0.00000896;3781.41025544;4435.00000042;4173.84615371;4301.15384630;4203.84615378;4236.53846154;4202.69230763;4205.12820506
4201.79487173;4201.79487173;4207.69230763;4235.51282052;4862.56410389;2038.71794407;229.99999153;-0.00000896;3781.28205031;4402.94871830;4175.76923063;4302.82051296;4175.51282038;4237.05128206;4202.17948711;4205.12820506
4201.92307686;4201.28205122;4233.97435898;4235.38461539;4890.64102703;2036.02563637;229.99999153;-0.00000896;3781.53846057;4434.61538504;4174.61538448;4302.17948732;4175.89743576;4237.43589744;4202.17948711;4205.12820506
4202.05128199;4175.76923063;4234.87179488;4236.02564103;4895.89743729;2009.23076451;229.99999153;-0.00000896;3778.97435801;4436.28205170;4172.05128192;4301.66666681;4174.23076910;4237.56410257;4202.69230763;4205.12820506
4201.15384609;4174.99999986;4203.84615378;4236.79487180;4831.41025766;2038.97435432;229.99999153;-0.00000896;3777.43589647;4433.84615427;4173.33333320;4302.30769245;4176.15384602;4237.17948718;4201.79487173;4205.12820506
4201.66666660;4175.25641012;4174.74358961;4236.15384616;4898.33333473;2009.35896964;8276.53847009;-0.00000896;3775.25640929;4435.00000042;4169.61538448;4303.07692322;4170.38461525;4237.69230770;4204.23076917;4205.12820506
4202.05128199;4175.51282038;4203.20512814;4237.56410257;4798.20512939;2038.33332868;8277.43590599;-0.00000896;3749.35897332;4433.46153888;4173.07692294;4303.20512835;4140.25641005;4236.92307693;4202.30769224;4205.12820506
4203.58974352;4175.76923063;4205.25641019;4237.43589744;4931.02564249;2034.99999535;229.99999153;-0.00000896;3775.12820416;4405.38461574;4170.51282038;4302.17948732;4141.15384595;4236.92307693;4175.89743576;4205.12820506
4203.71794865;4175.25641012;4208.20512814;4237.43589744;4828.97436023;2036.66666201;8277.43590599;-0.00000896;3774.87179390;4435.89743632;4172.05128192;4303.58974373;4169.35897422;4237.56410257;4201.53846147;4205.12820506
4204.48717942;4201.15384609;4237.17948718;4238.07692308;4861.92307825;2037.30768766;229.99999153;-0.00000896;3774.99999903;4433.84615427;4203.46153840;4301.15384630;4175.25641012;4236.92307693;4201.28205122;4205.12820506
4204.99999993;4201.02564096;4206.15384609;4237.56410257;4892.94871934;2038.07691843;8277.43590599;-0.00000896;3774.74358877;4404.87179522;4174.10256397;4300.38461553;4174.87179474;4236.79487180;4202.17948711;4205.12820506
4205.38461532;4201.79487173;4236.92307693;4236.53846154;4892.30769370;2010.12820041;229.99999153;-0.00000896;3775.51281954;4434.35897478;4201.41025634;4302.17948732;4174.23076910;4237.82051282;4202.43589737;4205.12820506
4205.12820506;4202.43589737;4207.05128199;4236.41025641;4892.69230909;2038.20512355;8277.43590599;-0.00000896;3776.79487083;4432.56410298;4174.61538448;4302.17948732;4173.33333320;4237.30769231;4202.05128199;4205.12820506
4205.64102558;4201.41025634;4241.41025641;4234.74358975;4894.23077062;2008.33332861;229.99999153;-0.00000896;3775.64102467;4401.15384651;4203.71794865;4301.92307707;4201.02564096;4237.43589744;4202.05128199;4205.12820506
4204.10256404;4203.07692301;4237.56410257;4236.02564103;4894.74359114;2036.53845689;8277.43590599;-0.00000896;3776.79487083;4403.20512856;4201.28205122;4302.05128219;4203.97435891;4236.79487180;4202.30769224;4205.12820506
4203.07692301;4202.43589737;4238.58974359;4236.28205129;4826.02564228;2009.48717477;229.99999153;-0.00000896;3775.76922980;4400.38461574;4201.28205122;4302.94871809;4202.30769224;4237.82051282;4202.30769224;4205.12820506
4204.10256404;4203.33333327;4238.07692308;4234.61538462;4864.87179620;2037.43589278;8277.43590599;-0.00000896;3749.48717845;4405.51282086;4203.58974352;4302.82051296;4204.23076917;4236.92307693;4175.64102551;4205.12820506
4204.74358968;4202.69230763;4235.51282052;4235.25641026;4893.71795011;2036.02563637;229.99999153;-0.00000896;3748.97435794;4433.07692350;4202.17948711;4301.02564117;4175.25641012;4237.69230770;4201.92307686;4205.12820506
4204.35897429;4203.46153840;4238.97435898;4235.89743590;4827.82051408;2036.28204663;8277.43590599;-0.00000896;3749.10256306;4433.46153888;4174.99999986;4302.69230784;4203.20512814;4236.53846154;4202.56410250;4205.12820506
4205.12820506;4203.84615378;4241.28205129;4233.97435898;4891.02564242;2036.66666201;229.99999153;-0.00000896;3747.43589640;4406.02564138;4175.89743576;4301.53846168;4176.28205115;4237.43589744;4202.30769224;4205.12820506
4206.66666660;4202.94871788;4236.92307693;4234.23076923;4797.94871913;2009.99999528;8277.43590599;-0.00000896;3749.23076819;4431.66666709;4202.43589737;4302.43589758;4176.28205115;4236.92307693;4203.33333327;4205.12820506
4206.53846147;4203.71794865;4236.66666667;4208.97435891;4927.43589890;2010.12820041;229.99999153;-0.00000896;3748.84615281;4432.05128247;4201.79487173;4302.69230784;4202.56410250;4238.07692308;4202.30769224;4205.12820506
4206.66666660;4203.33333327;4207.05128199;4233.97435898;4799.87179606;2009.48717477;8277.43590599;-0.00000896;3776.66666570;4405.25641061;4172.05128192;4302.94871809;4201.41025634;4237.69230770;4202.17948711;4205.12820506
4207.94871788;4202.82051275;4205.64102558;4234.74358975;4895.38461678;2035.64102099;229.99999153;-0.00000896;3777.17948621;4435.12820555;4172.05128192;4302.56410271;4171.41025628;4238.46153847;4202.05128199;4205.12820506
4206.92307686;4202.82051275;4206.92307686;4234.61538462;4762.82051394;2035.12820048;8277.43590599;-0.00000896;3778.97435801;4431.41025683;4168.84615371;4303.84615399;4168.58974345;4236.92307693;4202.82051275;4205.12820506
4206.79487173;4202.17948711;4235.51282052;4235.51282052;4862.94871927;2007.05127733;229.99999153;-0.00000896;3781.15384518;4431.28205170;4202.82051275;4303.97435912;4175.12820499;4237.17948718;4202.30769224;4205.12820506
4206.66666660;4202.56410250;4234.74358975;4234.87179488;4862.05128338;2039.48717484;8277.43590599;-0.00000896;3781.15384518;4436.28205170;4173.07692294;4303.20512835;4201.15384609;4236.66666667;4202.17948711;4205.12820506
4206.02564096;4203.58974352;4236.15384616;4234.10256411;4857.82051414;2037.69230304;229.99999153;-0.00000896;3778.33333236;4432.17948760;4202.82051275;4301.79487194;4203.84615378;4236.66666667;4203.58974352;4205.12820506
4206.02564096;4204.10256404;4238.46153847;4234.48717949;4892.43589883;2005.25640554;8277.43590599;-0.00000896;3779.74358877;4433.97435940;4201.02564096;4303.33333348;4205.89743583;4238.71794872;4202.30769224;4205.12820506
4205.12820506;4202.69230763;4235.25641026;4236.02564103;4767.05128317;2005.64102092;229.99999153;-0.00000896;3780.89743493;4433.58974401;4202.30769224;4303.58974373;4203.33333327;4237.94871795;4201.66666660;4205.12820506
4205.25641019;4202.17948711;4204.74358968;4235.51282052;4926.53846300;2035.64102099;8277.43590599;-0.00000896;3779.23076826;4432.82051324;4173.84615371;4303.97435912;4173.97435884;4237.17948718;4202.30769224;4205.12820506
4204.74358968;4201.92307686;4208.46153840;4236.28205129;4793.97436016;2038.20512355;229.99999153;-0.00000896;3776.92307595;4434.35897478;4169.23076910;4303.33333348;4173.97435884;4237.56410257;4201.28205122;4205.12820506
4204.23076917;4203.20512814;4201.79487173;4236.15384616;4924.35897582;2038.58973894;8277.43590599;-0.00000896;3774.74358877;4434.35897478;4173.71794858;4302.69230784;4174.74358961;4238.20512821;4202.30769224;4205.12820506
4206.15384609;4202.43589737;4201.79487173;4236.66666667;4861.79487312;2036.28204663;229.99999153;-0.00000896;3776.15384518;4433.58974401;4172.30769217;4302.69230784;4171.79487166;4237.17948718;4202.30769224;4205.12820506
4204.61538455;4202.43589737;4205.51282045;4236.66666667;4827.30769356;2039.74358509;8276.79488035;-0.00000896;3775.38461442;4433.71794914;4173.84615371;4303.20512835;4172.69230756;4236.92307693;4202.56410250;4205.12820506
4204.87179481;4202.17948711;4207.30769224;4236.66666667;4925.51282198;2037.56409791;164.48717087;-0.00000896;3774.61538365;4435.38461581;4202.05128199;4302.43589758;4202.30769224;4237.69230770;4202.17948711;4205.12820506
4204.87179481;4202.94871788;4206.28205122;4237.30769231;4862.94871927;2034.99999535;8274.61539317;-0.00000896;3775.51281954;4431.28205170;4171.92307679;4302.82051296;4170.89743576;4238.58974359;4202.43589737;4205.12820506
4205.76923070;4203.46153840;4204.23076917;4235.25641026;4893.97436037;2036.41025176;229.99999153;-0.00000896;3775.38461442;4433.97435940;4175.64102551;4302.69230784;4176.28205115;4237.56410257;4202.17948711;4205.12820506
4205.51282045;4202.30769224;4204.10256404;4236.15384616;4827.69230895;2009.99999528;229.99999153;-0.00000896;3776.02564006;4436.79487222;4142.05128185;4304.35897450;4142.17948697;4237.17948718;4205.25641019;4205.12820506
4205.25641019;4203.58974352;4207.69230763;4236.15384616;4894.48718088;2035.64102099;229.99999153;-0.00000896;3775.38461442;4433.20512863;4174.74358961;4303.97435912;4202.56410250;4237.43589744;4202.05128199;4205.12820506
4205.25641019;4202.82051275;4202.43589737;4235.76923077;4925.25641172;2005.51281579;229.99999153;-0.00000896;3776.66666570;4433.20512863;4169.87179474;4302.17948732;4173.20512807;4239.10256411;4201.92307686;4205.12820506
4205.64102558;4202.82051275;4207.30769224;4235.25641026;4799.23077042;2039.48717484;-0.00000896;-0.00000896;3776.15384518;4434.23076965;4201.15384609;4303.46153860;4172.30769217;4237.30769231;4201.53846147;4205.12820506
4204.35897429;4203.71794865;4203.20512814;4236.41025641;4926.28205275;2037.17948253;-0.00000896;-0.00000896;3777.43589647;4405.51282086;4142.30769210;4302.05128219;4168.97435884;4237.56410257;4203.46153840;4205.12820506
4204.23076917;4203.46153840;4201.41025634;4236.28205129;4792.82051401;2036.41025176;-0.00000896;-0.00000896;3777.82051185;4432.17948760;4169.48717935;4303.58974373;4138.97435877;4237.17948718;4202.43589737;4205.12820506
4204.23076917;4203.33333327;4202.56410250;4236.02564103;4923.71795018;2009.10255938;-0.00000896;-0.00000896;3777.94871698;4432.43589786;4172.05128192;4302.69230784;4171.41025628;4237.30769231;4202.43589737;4205.12820506
4203.46153840;4203.84615378;4207.56410250;4236.28205129;4862.43589876;2007.30768759;-0.00000896;-0.00000896;3776.41025544;4434.23076965;4175.64102551;4302.56410271;4171.79487166;4237.69230770;4202.05128199;4205.12820506
4202.69230763;4204.10256404;4202.82051275;4236.92307693;4862.43589876;2035.38461073;-0.00000896;-0.00000896;3776.92307595;4435.12820555;4171.92307679;4302.05128219;4173.84615371;4238.07692308;4202.56410250;4205.12820506
4203.71794865;4202.56410250;4233.97435898;4236.53846154;4863.33333466;2038.07691843;-0.00000896;-0.00000896;3749.48717845;4432.94871837;4174.23076910;4302.17948732;4175.51282038;4237.17948718;4202.17948711;4205.12820506
4204.48717942;4202.69230763;4206.28205122;4235.76923077;4825.64102690;2039.99999535;-0.00000896;-0.00000896;3748.07692204;4433.58974401;4171.79487166;4300.76923091;4202.82051275;4237.05128206;4202.05128199;4205.12820506
4204.48717942;4203.71794865;4233.97435898;4235.00000000;4957.05128358;2008.97435425;-0.00000896;-0.00000896;3748.07692204;4405.76923112;4174.10256397;4301.92307707;4174.23076910;4235.25641026;4201.79487173;4205.12820506
4203.97435891;4202.94871788;4203.58974352;4236.28205129;4828.33333459;2009.87179015;-0.00000896;-0.00000896;3748.20512717;4436.79487222;4171.66666653;4302.05128219;4172.82051269;4237.17948718;4202.17948711;4205.12820506
4206.15384609;4202.30769224;4207.43589737;4235.25641026;4895.12820652;2036.15384150;-0.00000896;-0.00000896;3748.33333229;4434.48717991;4173.97435884;4302.17948732;4171.15384602;4237.43589744;4202.05128199;4205.12820506
4205.76923070;4202.17948711;4202.82051275;4234.48717949;4862.05128338;2010.12820041;-0.00000896;-0.00000896;3774.61538365;4432.82051324;4172.43589730;4301.92307707;4173.07692294;4238.20512821;4202.43589737;4205.12820506
4205.38461532;4201.53846147;4206.41025634;4234.87179488;4897.82051421;2035.76922612;-0.00000896;-0.00000896;3774.48717852;4435.51282093;4173.20512807;4302.17948732;4175.64102551;4238.58974359;4201.79487173;4205.12820506
4206.28205122;4201.79487173;4203.46153840;4233.97435898;4860.25641158;2037.43589278;-0.00000896;-0.00000896;3775.64102467;4404.61538497;4169.10256397;4303.20512835;4170.76923063;4236.28205129;4202.43589737;4205.12820506
4204.35897429;4202.56410250;4174.35897422;4234.23076923;4862.69230902;2034.99999535;-0.00000896;-0.00000896;3777.30769134;4433.58974401;4141.15384595;4302.56410271;4171.41025628;4237.05128206;4201.53846147;4205.12820506
4204.48717942;4201.66666660;4207.05128199;4233.84615385;4863.97436030;2036.79486714;-0.00000896;-0.00000896;3776.66666570;4434.48717991;4174.10256397;4303.46153860;4202.30769224;4237.82051282;4202.17948711;4205.12820506
4203.46153840;4202.43589737;4204.48717942;4209.10256404;4797.17948836;2008.58973887;-0.00000896;-0.00000896;3778.84615288;4432.94871837;4172.82051269;4303.46153860;4202.30769224;4238.46153847;4201.92307686;4205.12820506
4203.46153840;4202.43589737;4206.41025634;4234.61538462;4892.56410396;2037.69230304;-0.00000896;-0.00000896;3776.28205031;4437.56410298;4172.30769217;4302.94871809;4173.20512807;4238.07692308;4202.43589737;4205.12820506
4203.46153840;4202.82051275;4205.76923070;4208.97435891;4860.64102697;2009.87179015;-0.00000896;-0.00000896;3776.79487083;4437.17948760;4170.76923063;4302.56410271;4171.53846140;4237.30769231;4202.30769224;4205.12820506
4202.82051275;4202.30769224;4203.07692301;4234.74358975;4891.15384755;2036.28204663;-0.00000896;-0.00000896;3775.51281954;4431.92307734;4139.35897415;4301.92307707;4168.84615371;4236.92307693;4201.92307686;4205.12820506
4203.84615378;4202.94871788;4175.64102551;4234.87179488;4862.17948850;2008.58973887;-0.00000896;-0.00000896;3775.51281954;4434.61538504;4169.35897422;4305.76923091;4168.97435884;4236.41025641;4202.17948711;4205.12820506
4205.25641019;4203.33333327;4203.84615378;4234.48717949;4797.94871913;2036.66666201;-0.00000896;-0.00000896;3777.30769134;4431.66666709;4170.12820499;4300.38461553;4143.33333313;4237.43589744;4203.33333327;4205.12820506
4205.76923070;4202.94871788;4205.25641019;4234.74358975;4925.76923223;2037.82050817;-0.00000896;-0.00000896;3775.38461442;4433.71794914;4168.71794858;4303.58974373;4169.48717935;4237.17948718;4201.79487173;4205.12820506
4204.99999993;4202.69230763;4176.28205115;4235.51282052;4859.23077055;2007.56409784;-0.00000896;-0.00000896;3776.92307595;4433.46153888;4169.35897422;4303.46153860;4172.56410243;4236.79487180;4201.79487173;4205.12820506
4205.64102558;4202.05128199;4204.10256404;4234.35897436;4924.35897582;2037.56409791;229.99999153;-0.00000896;3776.92307595;4437.30769273;4172.69230756;4303.58974373;4173.46153833;4237.56410257;4202.17948711;4205.12820506
4204.99999993;4202.43589737;4206.92307686;4235.00000000;4792.17948836;2068.46153388;8273.20513676;-0.00000896;3776.02564006;4405.76923112;4201.41025634;4300.89743604;4173.58974345;4236.02564103;4201.15384609;4205.12820506
4205.89743583;4205.25641019;4202.82051275;4234.74358975;4891.66666806;2036.53845689;8238.07693156;-0.00000896;3776.28205031;4436.15384657;4169.99999986;4302.94871809;4171.92307679;4236.92307693;4202.69230763;4205.12820506
4206.15384609;4203.84615378;4175.76923063;4235.51282052;4861.28205261;2004.99999528;8275.12821368;-0.00000896;3775.51281954;4435.38461581;4168.20512807;4303.46153860;4169.23076910;4236.28205129;4175.89743576;4205.12820506
4205.89743583;4202.69230763;4205.76923070;4235.64102564;4890.89743729;2006.02563630;229.99999153;-0.00000896;3777.17948621;4431.66666709;4169.48717935;4303.84615399;4168.71794858;4237.17948718;4202.05128199;4205.12820506
4205.25641019;4201.79487173;4202.43589737;4236.02564103;4896.28205268;2035.25640560;229.99999153;-0.00000896;3775.64102467;4431.15384657;4169.74358961;4302.05128219;4171.92307679;4236.66666667;4202.43589737;4205.12820506
4205.89743583;4202.30769224;4175.25641012;4236.41025641;4829.23077049;2036.53845689;229.99999153;-0.00000896;3775.89743493;4432.69230811;4171.53846140;4303.97435912;4141.41025621;4237.82051282;4202.30769224;4205.12820506
4205.89743583;4202.17948711;4173.33333320;4236.15384616;4865.25641158;2038.20512355;229.99999153;-0.00000896;3775.38461442;4432.17948760;4168.71794858;4302.30769245;4168.71794858;4236.41025641;4202.43589737;4205.12820506
4204.48717942;4203.20512814;4207.30769224;4235.89743590;4928.84615531;2036.92307227;229.99999153;-0.00000896;3776.92307595;4404.10256445;4172.43589730;4302.94871809;4171.66666653;4237.56410257;4202.05128199;4205.12820506
4203.71794865;4202.43589737;4207.82051275;4235.12820513;4891.53846293;2037.43589278;229.99999153;-0.00000896;3776.53846057;4436.02564145;4172.69230756;4302.43589758;4174.99999986;4238.07692308;4202.17948711;4205.12820506
4203.84615378;4204.23076917;4205.76923070;4235.76923077;4897.69230909;2036.28204663;229.99999153;-0.00000896;3775.76922980;4405.00000035;4174.10256397;4302.43589758;4176.28205115;4236.92307693;4202.17948711;4205.12820506
4204.48717942;4203.33333327;4204.10256404;4233.97435898;4892.43589883;2036.79486714;229.99999153;-0.00000896;3776.02564006;4433.71794914;4168.71794858;4302.69230784;4170.38461525;4236.66666667;4202.17948711;4205.12820506
4204.61538455;4204.10256404;4205.12820506;4234.48717949;4864.10256543;2037.69230304;229.99999153;-0.00000896;3775.64102467;4432.17948760;4171.02564089;4301.02564117;4173.46153833;4236.66666667;4202.69230763;4205.12820506
4204.10256404;4202.43589737;4203.84615378;4235.12820513;4957.05128358;2008.58973887;229.99999153;-0.00000896;3777.30769134;4435.89743632;4168.84615371;4303.97435912;4171.28205115;4236.92307693;4202.30769224;4205.12820506
4206.41025634;4202.56410250;4176.15384602;4234.61538462;4830.38461664;2008.20512348;229.99999153;-0.00000896;3777.17948621;4435.64102606;4169.74358961;4303.84615399;4173.71794858;4237.05128206;4175.89743576;4205.12820506
4205.25641019;4202.94871788;4201.79487173;4236.79487180;4956.28205281;2009.74358502;229.99999153;-0.00000896;3778.20512724;4432.30769273;4171.15384602;4303.46153860;4143.46153826;4237.69230770;4201.66666660;4205.12820506
4205.38461532;4202.30769224;4203.58974352;4236.41025641;4766.15384727;2040.25640560;229.99999153;-0.00000896;3775.76922980;4435.25641068;4140.51282031;4303.84615399;4169.74358961;4237.43589744;4202.82051275;4205.12820506
4205.25641019;4203.20512814;4175.51282038;4237.05128206;4989.10256570;2007.82050810;229.99999153;-0.00000896;3777.05128108;4435.76923119;4173.20512807;4303.07692322;4171.79487166;4237.69230770;4202.05128199;4205.12820506
4205.89743583;4202.43589737;4202.69230763;4236.92307693;4830.89743715;2035.51281586;229.99999153;-0.00000896;3775.76922980;4432.30769273;4168.84615371;4303.07692322;4142.82051262;4237.43589744;4202.17948711;4205.12820506
4206.41025634;4201.41025634;4201.79487173;4236.66666667;4930.25641172;2007.05127733;229.99999153;-0.00000896;3775.38461442;4433.46153888;4173.20512807;4304.23076937;4171.79487166;4236.15384616;4202.94871788;4205.12820506
4207.17948711;4201.28205122;4202.82051275;4236.15384616;4862.43589876;2037.94871330;229.99999153;-0.00000896;3776.02564006;4433.46153888;4141.41025621;4303.84615399;4173.33333320;4236.53846154;4202.30769224;4205.12820506
4205.76923070;4202.56410250;4206.15384609;4236.41025641;4829.87179613;2036.28204663;229.99999153;-0.00000896;3775.89743493;4404.10256445;4170.38461525;4302.17948732;4201.15384609;4236.92307693;4202.30769224;4205.12820506
4206.15384609;4201.53846147;4206.66666660;4236.53846154;4960.00000153;2038.71794407;229.99999153;-0.00000896;3775.12820416;4436.15384657;4174.99999986;4302.69230784;4202.30769224;4237.17948718;4202.56410250;4205.12820506
4204.35897429;4202.17948711;4208.84615378;4237.30769231;4861.92307825;2037.17948253;229.99999153;-0.00000896;3774.74358877;4403.07692343;4174.10256397;4300.76923091;4172.17948704;4236.92307693;4202.94871788;4205.12820506
4204.61538455;4203.33333327;4208.46153840;4237.17948718;4957.69230922;2036.15384150;229.99999153;-0.00000896;3774.48717852;4431.66666709;4203.20512814;4302.69230784;4175.12820499;4236.41025641;4202.17948711;4205.12820506
4204.35897429;4203.20512814;4205.25641019;4237.17948718;4858.20512953;2037.30768766;229.99999153;-0.00000896;3748.46153742;4403.46153881;4174.61538448;4303.33333348;4171.53846140;4237.43589744;4202.05128199;4205.12820506
4204.87179481;4201.92307686;4203.84615378;4236.66666667;4891.02564242;2036.53845689;229.99999153;-0.00000896;3748.97435794;4431.28205170;4201.28205122;4303.84615399;4172.05128192;4236.66666667;4202.05128199;4205.12820506
4205.12820506;4203.07692301;4203.20512814;4235.38461539;4956.92307846;2037.94871330;229.99999153;-0.00000896;3747.94871691;4463.71794921;4174.99999986;4303.07692322;4168.97435884;4237.17948718;4202.30769224;4205.12820506
4204.61538455;4203.33333327;4202.17948711;4235.89743590;4829.10256536;2035.38461073;229.99999153;-0.00000896;3746.66666563;4433.58974401;4172.17948704;4301.92307707;4171.15384602;4238.07692308;4201.92307686;4205.12820506
4205.51282045;4202.17948711;4207.17948711;4234.35897436;4960.89743743;2008.33332861;229.99999153;-0.00000896;3774.35897339;4436.28205170;4175.38461525;4302.82051296;4172.94871781;4237.82051282;4202.05128199;4205.12820506
4205.64102558;4202.69230763;4204.48717942;4234.61538462;4827.82051408;2036.92307227;229.99999153;-0.00000896;3746.92307588;4402.56410292;4174.99999986;4302.94871809;4169.48717935;4237.30769231;4175.76923063;4205.12820506
4205.89743583;4202.82051275;4206.53846147;4233.97435898;4924.74359121;2009.74358502;229.99999153;-0.00000896;3774.48717852;4432.82051324;4169.87179474;4303.71794886;4172.56410243;4236.66666667;4202.05128199;4205.12820506
4205.38461532;4202.56410250;4205.89743583;4235.12820513;4927.43589890;2039.48717484;229.99999153;-0.00000896;3749.10256306;4401.79487215;4174.87179474;4302.17948732;4172.30769217;4237.30769231;4202.17948711;4205.12820506
4204.99999993;4204.74358968;4201.92307686;4234.10256411;4861.15384748;2036.79486714;229.99999153;-0.00000896;3774.61538365;4431.92307734;4174.87179474;4302.17948732;4173.33333320;4236.66666667;4202.30769224;4205.12820506
4205.25641019;4204.61538455;4234.10256411;4234.48717949;4924.48718095;2036.02563637;229.99999153;-0.00000896;3748.07692204;4431.41025683;4203.07692301;4303.20512835;4203.58974352;4237.30769231;4201.53846147;4205.12820506
4206.02564096;4204.48717942;4208.71794865;4234.35897436;4830.76923202;2035.64102099;229.99999153;-0.00000896;3749.61538358;4432.69230811;4202.69230763;4302.94871809;4205.51282045;4237.94871795;4201.79487173;4205.12820506
4206.79487173;4203.07692301;4235.00000000;4234.87179488;4957.56410410;2034.99999535;229.99999153;-0.00000896;3749.10256306;4433.33333375;4176.02564089;4304.10256425;4204.99999993;4239.35897436;4202.69230763;4205.12820506
4206.28205122;4203.58974352;4233.84615385;4235.38461539;4865.12820645;2039.61537996;8277.05129060;-0.00000896;3749.61538358;4404.61538497;4174.74358961;4302.56410271;4205.38461532;4238.58974359;4202.30769224;4205.12820506
4205.89743583;4204.10256404;4208.71794865;4233.97435898;4892.56410396;2007.43589271;8274.48718804;-0.00000896;3774.87179390;4431.92307734;4170.51282038;4301.92307707;4203.84615378;4238.46153847;4201.79487173;4205.12820506
4205.12820506;4204.10256404;4238.33333334;4235.00000000;4923.71795018;2010.12820041;229.99999153;-0.00000896;3774.99999903;4431.02564145;4202.82051275;4301.53846168;4207.69230763;4237.56410257;4201.92307686;4205.12820506
4205.76923070;4204.35897429;4234.10256411;4209.10256404;4832.30769356;2067.69230311;8274.48718804;-0.00000896;3774.74358877;4434.10256452;4203.33333327;4302.56410271;4202.82051275;4238.46153847;4202.05128199;4205.12820506
4204.74358968;4205.64102558;4235.76923077;4233.97435898;4989.48718109;2007.43589271;-0.00000896;-0.00000896;3748.97435794;4432.30769273;4202.05128199;4302.56410271;4204.61538455;4236.92307693;4203.84615378;4205.12820506
4205.89743583;4204.99999993;4235.38461539;4233.84615385;4895.00000139;2004.99999528;-0.00000896;-0.00000896;3774.87179390;4436.79487222;4201.28205122;4302.17948732;4205.64102558;4237.56410257;4202.05128199;4205.12820506
4205.76923070;4203.97435891;4235.00000000;4234.10256411;4893.84615524;2007.94871323;-0.00000896;-0.00000896;3776.53846057;4433.46153888;4173.71794858;4301.66666681;4202.82051275;4237.17948718;4202.56410250;4205.12820506
4206.02564096;4202.17948711;4236.92307693;4208.97435891;4865.25641158;2034.87179022;-0.00000896;-0.00000896;3749.48717845;4431.15384657;4201.15384609;4302.05128219;4203.84615378;4238.46153847;4201.92307686;4205.12820506
4205.64102558;4202.82051275;4234.87179488;4235.64102564;4862.69230902;2036.92307227;-0.00000896;-0.00000896;3775.38461442;4432.82051324;4202.43589737;4303.46153860;4206.41025634;4238.20512821;4204.48717942;4205.12820506
4206.15384609;4202.94871788;4234.48717949;4234.74358975;4923.71795018;2039.61537996;-0.00000896;-0.00000896;3775.25640929;4405.64102599;4172.69230756;4300.00000014;4203.20512814;4237.69230770;4202.17948711;4205.12820506
4205.64102558;4203.20512814;4208.33333327;4236.02564103;4895.00000139;2036.92307227;-0.00000896;-0.00000896;3775.51281954;4430.89743632;4176.15384602;4303.71794886;4201.92307686;4238.46153847;4202.05128199;4205.12820506
4205.38461532;4203.71794865;4234.10256411;4236.15384616;4926.66666813;2036.53845689;-0.00000896;-0.00000896;3775.38461442;4434.74359016;4201.41025634;4303.58974373;4206.66666660;4237.94871795;4201.41025634;4205.12820506
4205.51282045;4203.46153840;4203.33333327;4234.74358975;4860.38461671;2035.38461073;-0.00000896;-0.00000896;3774.74358877;4434.61538504;4174.61538448;4304.10256425;4171.79487166;4237.56410257;4204.48717942;4205.12820506
4204.87179481;4203.33333327;4206.02564096;4235.76923077;4861.92307825;2037.43589278;-0.00000896;-0.00000896;3749.23076819;4430.76923119;4172.56410243;4302.17948732;4174.48717935;4238.46153847;4202.43589737;4205.12820506
4207.30769224;4203.20512814;4235.25641026;4234.10256411;4927.94871941;2036.53845689;-0.00000896;-0.00000896;3747.94871691;4431.92307734;4175.89743576;4302.05128219;4205.25641019;4238.07692308;4202.43589737;4205.12820506
4206.79487173;4203.07692301;4238.33333334;4235.00000000;4798.20512939;2009.23076451;-0.00000896;-0.00000896;3749.48717845;4432.82051324;4201.15384609;4301.92307707;4172.56410243;4238.58974359;4175.51282038;4205.12820506
4207.05128199;4202.82051275;4208.97435891;4234.61538462;4957.30769384;2010.12820041;-0.00000896;-0.00000896;3776.92307595;4437.05128247;4203.97435891;4301.41025655;4205.25641019;4237.43589744;4202.05128199;4205.12820506
4206.79487173;4202.69230763;4234.35897436;4235.89743590;4791.92307811;2035.89743125;-0.00000896;-0.00000896;3776.02564006;4432.69230811;4175.89743576;4303.58974373;4169.10256397;4236.53846154;4202.30769224;4205.12820506
4206.92307686;4202.69230763;4202.69230763;4235.12820513;4958.33333487;2036.53845689;-0.00000896;-0.00000896;3777.17948621;4432.82051324;4204.74358968;4301.41025655;4201.41025634;4238.20512821;4201.92307686;4205.12820506
4206.41025634;4203.33333327;4235.12820513;4235.76923077;4863.46153979;2038.46153381;-0.00000896;-0.00000896;3776.28205031;4434.87179529;4203.71794865;4303.58974373;4201.02564096;4237.05128206;4203.46153840;4205.12820506
4205.25641019;4204.23076917;4207.43589737;4234.87179488;4896.92307832;2009.23076451;-0.00000896;-0.00000896;3775.25640929;4433.84615427;4203.58974352;4303.58974373;4203.20512814;4237.82051282;4202.30769224;4205.12820506
4205.12820506;4203.97435891;4206.66666660;4234.74358975;4831.53846279;2007.56409784;-0.00000896;-0.00000896;3775.12820416;4433.20512863;4201.02564096;4301.92307707;4175.12820499;4236.53846154;4201.53846147;4205.12820506
4204.74358968;4203.58974352;4207.17948711;4235.76923077;4929.74359121;2007.94871323;-0.00000896;-0.00000896;3749.48717845;4436.41025683;4175.64102551;4302.94871809;4173.71794858;4237.56410257;4201.92307686;4205.12820506
4205.25641019;4202.82051275;4208.33333327;4209.10256404;4862.56410389;2009.48717477;-0.00000896;-0.00000896;3774.35897339;4432.05128247;4175.89743576;4303.33333348;4174.35897422;4238.46153847;4204.10256404;4205.12820506
4204.74358968;4203.07692301;4206.28205122;4235.00000000;4930.25641172;2035.25640560;-0.00000896;-0.00000896;3748.58974255;4435.25641068;4202.05128199;4302.05128219;4174.10256397;4238.07692308;4202.17948711;4205.12820506
4205.64102558;4203.07692301;4208.71794865;4234.35897436;4861.41025773;2036.66666201;-0.00000896;-0.00000896;3749.61538358;4437.94871837;4176.02564089;4302.43589758;4202.17948711;4237.56410257;4202.05128199;4205.12820506
4205.76923070;4203.46153840;4235.00000000;4236.41025641;4897.56410396;2035.12820048;-0.00000896;-0.00000896;3749.10256306;4432.82051324;4202.82051275;4301.79487194;4201.41025634;4238.20512821;4203.84615378;4205.12820506
4205.64102558;4202.43589737;4234.35897436;4236.02564103;4826.66666792;2035.12820048;-0.00000896;-0.00000896;3774.35897339;4435.38461581;4171.79487166;4302.05128219;4173.84615371;4238.33333334;4202.30769224;4205.12820506
4205.38461532;4202.17948711;4204.99999993;4235.51282052;4961.28205281;2037.05127740;229.99999153;-0.00000896;3774.48717852;4435.89743632;4202.05128199;4302.30769245;4202.05128199;4237.94871795;4202.30769224;4205.12820506
4204.48717942;4203.07692301;4206.15384609;4235.51282052;4795.89743708;2036.66666201;229.99999153;-0.00000896;3774.35897339;4434.10256452;4172.56410243;4303.33333348;4168.71794858;4237.82051282;4201.79487173;4205.12820506
4205.64102558;4202.69230763;4206.92307686;4234.48717949;4959.48718102;2035.76922612;229.99999153;-0.00000896;3749.61538358;4433.97435940;4175.76923063;4302.43589758;4202.94871788;4236.79487180;4202.30769224;4205.12820506
4204.10256404;4203.46153840;4207.43589737;4234.35897436;4797.43589862;2038.58973894;229.99999153;-0.00000896;3774.48717852;4434.48717991;4176.28205115;4303.07692322;4201.28205122;4237.56410257;4202.17948711;4205.12820506
4203.97435891;4202.56410250;4235.25641026;4235.00000000;4928.07692454;2035.89743125;8276.02564958;-0.00000896;3749.23076819;4432.56410298;4174.23076910;4301.53846168;4201.53846147;4237.56410257;4202.43589737;4205.12820506
4204.87179481;4202.05128199;4236.79487180;4233.84615385;4928.07692454;2036.28204663;8274.61539317;-0.00000896;3775.38461442;4433.71794914;4173.84615371;4302.56410271;4202.69230763;4237.30769231;4201.79487173;4205.12820506
4204.74358968;4202.56410250;4240.25641026;4234.61538462;4865.51282184;2035.89743125;229.99999153;-0.00000896;3748.20512717;4432.69230811;4205.38461532;4302.43589758;4208.71794865;4237.82051282;4204.99999993;4205.12820506
4203.71794865;4203.07692301;4235.76923077;4235.89743590;4929.23077069;2035.64102099;8274.61539317;-0.00000896;3774.87179390;4434.74359016;4205.51282045;4302.43589758;4205.38461532;4237.56410257;4202.56410250;4205.12820506
4203.97435891;4203.58974352;4267.30769238;4235.25641026;4830.89743715;2038.46153381;229.99999153;-0.00000896;3774.48717852;4434.23076965;4204.35897429;4301.15384630;4206.02564096;4237.69230770;4202.17948711;4205.12820506
4204.61538455;4203.46153840;4207.56410250;4234.61538462;4929.35897582;2035.64102099;8274.61539317;-0.00000896;3774.48717852;4430.76923119;4207.69230763;4302.69230784;4206.53846147;4237.94871795;4202.56410250;4205.12820506
4204.87179481;4203.84615378;4240.12820513;4234.23076923;4824.87179613;2036.15384150;229.99999153;-0.00000896;3748.33333229;4431.92307734;4202.43589737;4301.02564117;4173.97435884;4236.41025641;4201.79487173;4205.12820506
4204.35897429;4204.10256404;4233.84615385;4235.25641026;4927.56410403;2035.38461073;8274.61539317;-0.00000896;3774.87179390;4436.66666709;4202.82051275;4300.76923091;4175.89743576;4236.53846154;4201.92307686;4205.12820506
4206.41025634;4202.30769224;4208.58974352;4208.71794865;4863.97436030;2010.12820041;229.99999153;-0.00000896;3774.35897339;4433.97435940;4176.02564089;4303.20512835;4202.82051275;4237.43589744;4202.17948711;4205.12820506
4204.61538455;4203.33333327;4209.10256404;4235.25641026;4830.00000125;2009.10255938;8274.61539317;-0.00000896;3776.53846057;4435.51282093;4176.02564089;4302.30769245;4204.23076917;4237.43589744;4201.53846147;4205.12820506
4205.89743583;4202.56410250;4205.64102558;4234.87179488;4896.79487319;2035.38461073;229.99999153;-0.00000896;3776.41025544;4435.38461581;4176.15384602;4302.82051296;4201.28205122;4237.94871795;4201.92307686;4205.12820506
4205.12820506;4202.30769224;4206.53846147;4235.00000000;4796.79487298;2036.92307227;8274.61539317;-0.00000896;3776.92307595;4405.64102599;4174.23076910;4301.15384630;4171.41025628;4237.56410257;4201.92307686;4205.12820506
4204.61538455;4202.94871788;4206.66666660;4234.87179488;4928.71795018;2038.58973894;229.99999153;-0.00000896;3776.92307595;4433.97435940;4203.46153840;4300.12820527;4176.15384602;4238.20512821;4202.43589737;4205.12820506
4204.99999993;4203.07692301;4237.17948718;4234.61538462;4828.20512946;2037.05127740;8274.61539317;-0.00000896;3776.53846057;4433.58974401;4204.35897429;4300.89743604;4174.87179474;4237.56410257;4202.05128199;4205.12820506
4204.35897429;4203.84615378;4208.58974352;4235.89743590;4925.12820659;2007.43589271;229.99999153;-0.00000896;3777.17948621;4433.46153888;4201.92307686;4301.92307707;4175.64102551;4237.69230770;4202.17948711;4205.12820506
4204.74358968;4202.05128199;4235.51282052;4234.74358975;4859.74359107;2009.74358502;8274.61539317;-0.00000896;3777.94871698;4437.56410298;4204.48717942;4301.92307707;4173.97435884;4237.69230770;4202.82051275;4205.12820506
4203.33333327;4176.02564089;4202.56410250;4236.15384616;4891.41025780;2009.23076451;229.99999153;-0.00000896;3775.51281954;4403.58974394;4170.64102551;4301.28205142;4171.41025628;4237.30769231;4176.15384602;4205.12820506
4203.97435891;4201.28205122;4235.51282052;4235.25641026;4859.61538594;2039.35896971;8274.61539317;-0.00000896;3774.48717852;4432.94871837;4176.02564089;4300.12820527;4170.76923063;4237.94871795;4202.05128199;4205.12820506
4203.58974352;4201.53846147;4202.30769224;4235.38461539;4895.00000139;2039.10255945;229.99999153;-0.00000896;3749.48717845;4432.69230811;4172.30769217;4302.05128219;4173.07692294;4238.07692308;4201.92307686;4205.12820506
4203.97435891;4202.94871788;4238.20512821;4236.28205129;4891.02564242;2037.69230304;8274.61539317;-0.00000896;3749.23076819;4432.56410298;4207.17948711;4303.07692322;4173.97435884;4237.17948718;4202.30769224;4205.12820506
4203.97435891;4203.33333327;4208.33333327;4236.41025641;4926.41025787;2008.97435425;229.99999153;-0.00000896;3749.23076819;4433.71794914;4203.33333327;4302.17948732;4203.33333327;4237.56410257;4202.05128199;4205.12820506
4204.99999993;4202.30769224;4236.02564103;4235.25641026;4891.92307832;2035.25640560;8274.61539317;-0.00000896;3748.07692204;4434.61538504;4201.66666660;4302.30769245;4203.20512814;4237.94871795;4202.30769224;4205.12820506
4205.64102558;4202.56410250;4234.35897436;4236.02564103;4828.33333459;2038.97435432;229.99999153;-0.00000896;3747.05128101;4432.17948760;4175.51282038;4304.23076937;4202.94871788;4237.94871795;4203.46153840;4205.12820506
4205.64102558;4203.33333327;4234.87179488;4234.87179488;4863.97436030;2035.64102099;8274.61539317;-0.00000896;3746.79487076;4431.66666709;4202.05128199;4302.56410271;4202.30769224;4237.17948718;4201.92307686;4205.12820506
4205.76923070;4203.07692301;4235.38461539;4235.12820513;4924.23077069;2034.99999535;229.99999153;-0.00000896;3749.48717845;4434.48717991;4202.82051275;4302.05128219;4175.51282038;4237.82051282;4202.30769224;4205.12820506
4206.28205122;4202.94871788;4208.97435891;4235.38461539;4861.41025773;2004.99999528;8274.61539317;-0.00000896;3775.51281954;4405.51282086;4204.10256404;4303.20512835;4201.79487173;4236.41025641;4202.30769224;4205.12820506
4205.51282045;4203.33333327;4207.43589737;4233.84615385;4898.07692447;2009.61537989;229.99999153;-0.00000896;3775.25640929;4433.46153888;4175.89743576;4303.20512835;4173.20512807;4237.17948718;4174.35897422;4205.12820506
4205.76923070;4203.20512814;4208.58974352;4234.61538462;4797.82051401;2037.30768766;8274.61539317;-0.00000896;3775.64102467;4431.92307734;4174.74358961;4301.79487194;4173.07692294;4237.05128206;4203.97435891;4205.12820506
4204.99999993;4203.58974352;4239.35897436;4234.87179488;4862.82051414;2038.58973894;229.99999153;-0.00000896;3776.15384518;4404.87179522;4206.53846147;4302.05128219;4205.64102558;4238.20512821;4202.43589737;4205.12820506
4204.74358968;4204.48717942;4206.79487173;4234.74358975;4890.25641165;2009.35896964;8276.66667522;-0.00000896;3776.28205031;4434.23076965;4201.02564096;4300.76923091;4171.02564089;4237.94871795;4201.66666660;4205.12820506
4204.23076917;4204.48717942;4207.17948711;4235.51282052;4859.87179620;2034.87179022;164.87178626;-0.00000896;3775.25640929;4437.30769273;4175.89743576;4302.43589758;4175.51282038;4238.58974359;4202.05128199;4205.12820506
4205.12820506;4203.33333327;4234.35897436;4234.74358975;4924.23077069;2010.12820041;8273.46154701;-0.00000896;3776.41025544;4435.76923119;4206.28205122;4304.87179501;4205.51282045;4238.07692308;4202.94871788;4205.12820506
4204.61538455;4203.33333327;4238.84615385;4234.74358975;4792.56410375;2035.38461073;229.99999153;-0.00000896;3775.76922980;4431.53846196;4203.71794865;4302.30769245;4201.66666660;4239.23076923;4201.79487173;4205.12820506
4205.25641019;4202.69230763;4207.94871788;4235.12820513;4959.35897589;2035.12820048;229.99999153;-0.00000896;3775.51281954;4438.20512863;4204.35897429;4303.71794886;4205.25641019;4238.33333334;4169.35897422;4205.12820506
4206.02564096;4202.05128199;4236.41025641;4234.87179488;4797.17948836;2036.41025176;229.99999153;-0.00000896;3776.02564006;4434.35897478;4204.23076917;4301.66666681;4201.41025634;4238.97435898;4202.56410250;4205.12820506
4205.64102558;4204.10256404;4206.02564096;4235.76923077;4896.02564242;2036.92307227;229.99999153;-0.00000896;3774.99999903;4432.82051324;4202.94871788;4302.05128219;4203.46153840;4238.20512821;4202.05128199;4205.12820506
4206.28205122;4203.97435891;4207.94871788;4235.89743590;4863.20512953;2009.35896964;-0.00000896;-0.00000896;3774.61538365;4431.79487222;4175.76923063;4303.71794886;4172.94871781;4237.69230770;4202.05128199;4205.12820506
4206.28205122;4202.05128199;4234.35897436;4236.02564103;4830.51282177;2009.99999528;-0.00000896;-0.00000896;3775.51281954;4433.07692350;4202.69230763;4302.82051296;4202.56410250;4237.30769231;4176.15384602;4205.12820506
4206.28205122;4202.17948711;4206.02564096;4236.66666667;4927.82051428;2035.25640560;-0.00000896;-0.00000896;3775.12820416;4435.76923119;4174.35897422;4300.64102578;4142.94871774;4237.56410257;4201.66666660;4205.12820506
4206.28205122;4202.56410250;4205.51282045;4235.12820513;4863.07692440;2037.17948253;-0.00000896;-0.00000896;3774.35897339;4434.74359016;4174.23076910;4300.51282066;4173.71794858;4237.43589744;4201.92307686;4205.12820506
4206.53846147;4202.05128199;4205.64102558;4235.64102564;4926.66666813;2008.84614912;-0.00000896;-0.00000896;3749.48717845;4435.25641068;4202.05128199;4301.02564117;4175.51282038;4238.58974359;4204.87179481;4205.12820506
4206.41025634;4202.05128199;4206.53846147;4235.12820513;4827.43589869;2034.99999535;-0.00000896;-0.00000896;3774.87179390;4435.12820555;4174.35897422;4301.41025655;4174.74358961;4237.94871795;4201.79487173;4205.12820506
4205.89743583;4201.79487173;4175.76923063;4235.00000000;4924.35897582;2036.15384150;-0.00000896;-0.00000896;3774.74358877;4432.69230811;4204.87179481;4300.89743604;4174.87179474;4237.05128206;4202.17948711;4205.12820506
4204.48717942;4203.58974352;4205.51282045;4235.00000000;4894.48718088;2006.92307220;-0.00000896;-0.00000896;3774.74358877;4432.82051324;4202.69230763;4300.00000014;4174.74358961;4237.30769231;4201.79487173;4205.12820506
4204.99999993;4202.56410250;4204.23076917;4235.76923077;4831.53846279;2036.15384150;-0.00000896;-0.00000896;3774.48717852;4435.12820555;4172.82051269;4301.79487194;4170.38461525;4236.41025641;4202.17948711;4205.12820506
4204.87179481;4202.94871788;4204.87179481;4234.23076923;4925.00000146;2037.69230304;-0.00000896;-0.00000896;3747.43589640;4434.48717991;4168.97435884;4302.56410271;4173.20512807;4238.33333334;4201.92307686;4205.12820506
4204.35897429;4202.43589737;4206.53846147;4235.00000000;4830.00000125;2008.46153374;-0.00000896;-0.00000896;3746.66666563;4434.23076965;4174.23076910;4300.89743604;4172.82051269;4238.33333334;4201.79487173;4205.12820506
4204.23076917;4203.58974352;4202.82051275;4235.38461539;4924.23077069;2037.43589278;-0.00000896;-0.00000896;3747.30769127;4434.10256452;4171.41025628;4300.00000014;4201.02564096;4237.56410257;4202.43589737;4205.12820506
4205.38461532;4202.43589737;4207.69230763;4234.74358975;4861.53846286;2009.10255938;-0.00000896;-0.00000896;3747.69230665;4436.66666709;4201.92307686;4302.05128219;4171.53846140;4237.94871795;4202.94871788;4205.12820506
4205.38461532;4201.92307686;4202.17948711;4235.76923077;4861.53846286;2035.38461073;-0.00000896;-0.00000896;3748.33333229;4433.46153888;4175.76923063;4302.82051296;4175.25641012;4238.71794872;4203.84615378;4205.12820506
4206.53846147;4202.94871788;4204.48717942;4234.10256411;4892.69230909;2036.02563637;-0.00000896;-0.00000896;3749.10256306;4432.94871837;4176.02564089;4301.66666681;4173.07692294;4238.33333334;4202.17948711;4205.12820506
4206.15384609;4202.43589737;4207.69230763;4235.00000000;4865.25641158;2009.74358502;-0.00000896;-0.00000896;3774.61538365;4436.92307734;4202.17948711;4301.28205142;4202.30769224;4238.46153847;4202.94871788;4205.12820506
4206.66666660;4202.30769224;4202.56410250;4234.35897436;4862.05128338;2036.28204663;-0.00000896;-0.00000896;3775.51281954;4435.25641068;4171.79487166;4301.53846168;4171.02564089;4237.94871795;4202.17948711;4205.12820506
4206.28205122;4201.53846147;4204.35897429;4235.12820513;4893.20512960;2009.61537989;-0.00000896;-0.00000896;3776.15384518;4404.61538497;4173.84615371;4301.02564117;4170.51282038;4237.94871795;4202.30769224;4205.12820506
4205.25641019;4202.82051275;4208.84615378;4234.35897436;4892.43589883;2036.41025176;-0.00000896;-0.00000896;3777.43589647;4436.41025683;4203.46153840;4302.30769245;4201.66666660;4238.33333334;4202.30769224;4205.12820506
4204.99999993;4202.17948711;4205.76923070;4234.23076923;4827.43589869;2035.38461073;-0.00000896;-0.00000896;3777.17948621;4434.48717991;4171.53846140;4301.92307707;4174.61538448;4237.56410257;4202.43589737;4205.12820506
4204.10256404;4202.30769224;4206.28205122;4234.48717949;4896.28205268;2034.99999535;-0.00000896;-0.00000896;3776.15384518;4431.53846196;4203.33333327;4301.79487194;4170.76923063;4238.58974359;4202.17948711;4205.12820506
4203.84615378;4202.56410250;4205.12820506;4234.74358975;4861.02564235;2037.30768766;-0.00000896;-0.00000896;3776.92307595;4435.76923119;4172.82051269;4301.41025655;4201.66666660;4237.05128206;4202.56410250;4205.12820506
4203.84615378;4202.82051275;4204.48717942;4235.00000000;4926.02564249;2039.99999535;-0.00000896;-0.00000896;3774.74358877;4431.41025683;4174.87179474;4301.53846168;4168.58974345;4237.05128206;4202.43589737;4205.12820506
4204.48717942;4203.71794865;4175.25641012;4234.87179488;4826.79487305;2007.94871323;-0.00000896;-0.00000896;3748.33333229;4437.69230811;4172.69230756;4302.17948732;4170.64102551;4236.66666667;4201.92307686;4205.12820506
4206.41025634;4201.15384609;4208.58974352;4235.25641026;4891.53846293;2007.05127733;229.99999153;-0.00000896;3775.51281954;4433.58974401;4202.56410250;4301.92307707;4170.38461525;4237.69230770;4204.87179481;4205.12820506
4205.38461532;4202.30769224;4208.33333327;4234.87179488;4927.43589890;2009.74358502;8276.41026496;-0.00000896;3776.28205031;4405.51282086;4202.05128199;4301.53846168;4174.23076910;4237.43589744;4201.79487173;4205.12820506
4205.51282045;4176.28205115;4234.74358975;4236.15384616;4832.69230895;2037.17948253;137.82050414;-0.00000896;3774.48717852;4431.41025683;4203.58974352;4301.66666681;4175.12820499;4236.41025641;4201.92307686;4205.12820506
4205.38461532;4201.41025634;4206.41025634;4234.74358975;4926.02564249;2038.71794407;8305.00000862;-0.00000896;3774.61538365;4431.79487222;4201.79487173;4301.28205142;4171.41025628;4237.05128206;4202.30769224;4205.12820506
4204.87179481;4202.82051275;4234.23076923;4235.89743590;4890.76923216;2041.53845689;229.99999153;-0.00000896;3775.64102467;4402.82051317;4175.89743576;4302.05128219;4175.64102551;4237.43589744;4201.66666660;4205.12820506
4204.61538455;4202.43589737;4205.25641019;4234.48717949;4865.25641158;2036.92307227;229.99999153;-0.00000896;3775.51281954;4405.38461574;4206.02564096;4302.69230784;4173.07692294;4237.69230770;4202.05128199;4205.12820506
4204.10256404;4204.10256404;4208.97435891;4236.28205129;4863.58974491;2009.61537989;229.99999153;-0.00000896;3748.58974255;4405.12820548;4201.92307686;4301.79487194;4171.92307679;4236.92307693;4202.43589737;4205.12820506
4204.35897429;4203.33333327;4204.23076917;4235.25641026;4925.38461685;2037.82050817;229.99999153;-0.00000896;3748.71794768;4434.23076965;4203.46153840;4303.07692322;4173.97435884;4237.17948718;4201.92307686;4205.12820506
4204.87179481;4203.58974352;4201.41025634;4234.87179488;4798.07692426;2038.71794407;229.99999153;-0.00000896;3747.82051178;4406.02564138;4172.17948704;4301.41025655;4170.76923063;4237.69230770;4202.30769224;4205.12820506
4205.51282045;4203.07692301;4175.12820499;4208.97435891;4925.38461685;2036.28204663;229.99999153;-0.00000896;3748.07692204;4430.76923119;4175.51282038;4303.33333348;4169.74358961;4237.30769231;4201.79487173;4205.12820506
4206.15384609;4202.82051275;4205.25641019;4233.97435898;4795.51282170;2036.92307227;229.99999153;-0.00000896;3748.97435794;4435.00000042;4176.28205115;4302.94871809;4170.38461525;4237.82051282;4202.17948711;4205.12820506
4207.05128199;4201.53846147;4176.02564089;4234.74358975;4897.56410396;2035.38461073;229.99999153;-0.00000896;3776.15384518;4433.07692350;4173.33333320;4301.92307707;4171.15384602;4237.69230770;4202.69230763;4205.12820506
4207.43589737;4201.66666660;4205.25641019;4233.84615385;4865.25641158;2036.15384150;229.99999153;-0.00000896;3778.58974262;4435.12820555;4203.97435891;4300.38461553;4171.66666653;4238.33333334;4201.92307686;4205.12820506
4206.53846147;4202.30769224;4201.92307686;4235.12820513;4830.38461664;2009.74358502;229.99999153;-0.00000896;3779.10256313;4433.84615427;4201.92307686;4301.41025655;4171.53846140;4236.66666667;4202.94871788;4205.12820506
4206.28205122;4201.79487173;4204.99999993;4208.97435891;4924.48718095;2038.84614919;229.99999153;-0.00000896;3777.82051185;4435.38461581;4203.71794865;4301.79487194;4203.07692301;4237.69230770;4202.43589737;4205.12820506
4205.64102558;4202.94871788;4206.92307686;4234.61538462;4798.97436016;2036.02563637;229.99999153;-0.00000896;3776.79487083;4432.17948760;4175.64102551;4301.66666681;4169.23076910;4237.69230770;4202.17948711;4205.12820506
4206.28205122;4201.79487173;4176.28205115;4235.25641026;4927.69230916;2006.92307220;229.99999153;-0.00000896;3778.58974262;4431.41025683;4170.76923063;4302.05128219;4170.89743576;4238.84615385;4201.92307686;4205.12820506
4204.61538455;4202.17948711;4201.15384609;4236.92307693;4799.23077042;2007.69230297;229.99999153;-0.00000896;3777.94871698;4435.76923119;4172.30769217;4302.82051296;4141.92307672;4238.46153847;4201.28205122;4205.12820506
4205.64102558;4201.28205122;4205.12820506;4236.15384616;4896.41025780;2037.17948253;229.99999153;-0.00000896;3776.79487083;4433.20512863;4203.97435891;4303.71794886;4173.97435884;4237.17948718;4201.53846147;4205.12820506
4204.87179481;4201.41025634;4174.74358961;4237.94871795;4895.38461678;2038.07691843;229.99999153;-0.00000896;3775.38461442;4431.15384657;4171.15384602;4300.12820527;4169.74358961;4237.43589744;4176.28205115;4205.12820506
4204.23076917;4201.02564096;4204.87179481;4236.92307693;4857.69230902;2035.51281586;229.99999153;-0.00000896;3775.76922980;4433.58974401;4176.28205115;4303.33333348;4173.33333320;4236.66666667;4202.69230763;4205.12820506
4203.71794865;4203.07692301;4174.87179474;4237.17948718;4956.53846307;2036.02563637;229.99999153;-0.00000896;3748.71794768;4405.12820548;4142.30769210;4302.43589758;4142.94871774;4237.94871795;4202.94871788;4205.12820506
4203.71794865;4202.43589737;4202.56410250;4237.94871795;4826.41025766;2008.84614912;229.99999153;-0.00000896;3747.69230665;4432.94871837;4174.23076910;4304.10256425;4169.61538448;4236.92307693;4201.79487173;4205.12820506
4204.99999993;4202.17948711;4175.38461525;4235.89743590;4959.74359128;2034.87179022;229.99999153;-0.00000896;3744.74358871;4436.28205170;4171.02564089;4300.64102578;4169.99999986;4237.69230770;4201.79487173;4205.12820506
4204.35897429;4202.82051275;4208.46153840;4237.30769231;4827.94871920;2035.51281586;229.99999153;-0.00000896;3744.87179383;4403.58974394;4174.74358961;4300.38461553;4201.15384609;4238.07692308;4203.46153840;4205.12820506
4206.28205122;4201.66666660;4203.97435891;4234.48717949;4957.56410410;2035.76922612;229.99999153;-0.00000896;3745.76922973;4434.35897478;4173.71794858;4299.74358989;4173.71794858;4237.82051282;4202.05128199;4205.12820506
4205.12820506;4201.15384609;4173.97435884;4235.89743590;4890.38461678;2037.69230304;229.99999153;-0.00000896;3747.30769127;4433.07692350;4171.41025628;4301.66666681;4143.07692287;4238.97435898;4201.92307686;4205.12820506
4206.02564096;4201.28205122;4204.35897429;4234.10256411;4860.12820645;2037.56409791;229.99999153;-0.00000896;3747.94871691;4432.05128247;4169.35897422;4301.15384630;4143.46153826;4237.82051282;4202.05128199;4205.12820506
4206.02564096;4201.53846147;4202.30769224;4234.35897436;4955.89743743;2037.43589278;229.99999153;-0.00000896;3775.64102467;4403.84615420;4175.76923063;4300.89743604;4176.28205115;4237.56410257;4174.87179474;4205.12820506
4205.89743583;4201.66666660;4208.33333327;4233.84615385;4766.28205240;2036.79486714;229.99999153;-0.00000896;3748.97435794;4405.64102599;4174.35897422;4274.35897443;4170.64102551;4238.97435898;4201.92307686;4205.12820506
4204.99999993;4202.69230763;4203.46153840;4234.74358975;4961.15384769;2036.41025176;229.99999153;-0.00000896;3749.61538358;4404.61538497;4202.69230763;4302.30769245;4175.76923063;4238.71794872;4202.56410250;4205.12820506
4203.84615378;4203.33333327;4234.35897436;4234.35897436;4793.46153965;2035.51281586;229.99999153;-0.00000896;3748.58974255;4430.89743632;4206.02564096;4303.71794886;4173.20512807;4238.58974359;4202.30769224;4205.12820506
4203.97435891;4203.58974352;4203.20512814;4234.74358975;4927.30769377;2037.69230304;229.99999153;-0.00000896;3747.94871691;4431.28205170;4202.30769224;4301.66666681;4174.61538448;4238.07692308;4203.07692301;4205.12820506
4204.48717942;4202.94871788;4207.30769224;4235.12820513;4830.89743715;2036.15384150;229.99999153;-0.00000896;3748.84615281;4431.02564145;4172.30769217;4301.92307707;4173.58974345;4238.20512821;4201.79487173;4205.12820506
4205.38461532;4203.58974352;4202.05128199;4233.97435898;4893.84615524;2035.89743125;229.99999153;-0.00000896;3748.84615281;4433.71794914;4171.79487166;4301.92307707;4169.23076910;4237.30769231;4201.79487173;4205.12820506
4205.38461532;4202.69230763;4204.61538455;4235.12820513;4923.84615531;2037.43589278;229.99999153;-0.00000896;3774.61538365;4403.84615420;4203.07692301;4301.02564117;4174.35897422;4237.69230770;4201.79487173;4205.12820506
4206.92307686;4201.53846147;4204.35897429;4209.10256404;4891.02564242;2036.53845689;229.99999153;-0.00000896;3774.35897339;4436.02564145;4202.17948711;4301.92307707;4175.76923063;4238.46153847;4201.92307686;4205.12820506
4205.64102558;4203.33333327;4206.15384609;4234.61538462;4895.00000139;2036.15384150;8276.79488035;-0.00000896;3775.51281954;4433.33333375;4208.97435891;4302.17948732;4203.46153840;4237.17948718;4202.43589737;4205.12820506
4207.05128199;4202.69230763;4207.30769224;4234.35897436;4828.46153972;2038.58973894;8276.28205983;-0.00000896;3777.30769134;4432.05128247;4206.15384609;4303.71794886;4175.89743576;4238.97435898;4202.05128199;4205.12820506
4206.92307686;4202.17948711;4202.82051275;4209.10256404;4926.79487326;2036.02563637;229.99999153;-0.00000896;3776.28205031;4404.48717984;4203.84615378;4300.12820527;4172.30769217;4238.07692308;4201.92307686;4205.12820506
4205.64102558;4202.94871788;4206.66666660;4233.84615385;4864.61538594;2009.99999528;8276.28205983;-0.00000896;3775.76922980;4434.48717991;4175.38461525;4302.05128219;4172.30769217;4238.58974359;4201.66666660;4205.12820506
4205.38461532;4202.56410250;4175.64102551;4235.00000000;4858.71795004;2036.92307227;-0.00000896;-0.00000896;3775.64102467;4432.17948760;4174.61538448;4301.92307707;4171.41025628;4237.43589744;4201.15384609;4205.12820506
4204.61538455;4202.82051275;4176.28205115;4234.48717949;4862.82051414;2035.38461073;-0.00000896;-0.00000896;3775.89743493;4405.38461574;4176.02564089;4301.15384630;4170.12820499;4237.17948718;4202.43589737;4205.12820506
4203.46153840;4201.92307686;4201.41025634;4235.64102564;4831.41025766;2035.76922612;-0.00000896;-0.00000896;3775.76922980;4434.48717991;4202.82051275;4302.17948732;4172.82051269;4237.82051282;4201.92307686;4205.12820506
4203.84615378;4203.58974352;4175.25641012;4235.12820513;4894.74359114;2009.23076451;-0.00000896;-0.00000896;3775.12820416;4431.53846196;4174.74358961;4302.17948732;4168.71794858;4238.33333334;4202.05128199;4205.12820506
4204.10256404;4201.66666660;4208.20512814;4234.35897436;4863.84615517;2037.43589278;-0.00000896;-0.00000896;3748.58974255;4434.87179529;4234.35897436;4303.46153860;4203.20512814;4238.46153847;4202.43589737;4205.12820506
4204.48717942;4201.92307686;4202.30769224;4235.51282052;4860.89743722;2040.25640560;-0.00000896;-0.00000896;3775.25640929;4403.58974394;4173.46153833;4300.38461553;4173.97435884;4237.69230770;4202.05128199;4205.12820506
4204.10256404;4203.46153840;4203.97435891;4234.61538462;4892.43589883;2036.92307227;-0.00000896;-0.00000896;3774.87179390;4432.43589786;4203.97435891;4302.43589758;4201.79487173;4238.20512821;4201.79487173;4205.12820506
4204.61538455;4203.07692301;4172.82051269;4235.51282052;4860.25641158;2008.84614912;-0.00000896;-0.00000896;3748.07692204;4434.87179529;4173.84615371;4302.56410271;4170.12820499;4237.69230770;4202.56410250;4205.12820506
4205.89743583;4202.17948711;4176.28205115;4233.97435898;4862.56410389;2004.23076451;-0.00000896;-0.00000896;3775.51281954;4431.02564145;4174.23076910;4302.94871809;4168.58974345;4239.35897436;4201.92307686;4205.12820506
4205.51282045;4175.51282038;4171.53846140;4235.64102564;4897.43589883;2007.05127733;-0.00000896;-0.00000896;3776.53846057;4432.05128247;4202.43589737;4301.53846168;4168.71794858;4238.46153847;4201.92307686;4205.12820506
4205.25641019;4202.30769224;4173.71794858;4235.12820513;4865.25641158;2040.12820048;-0.00000896;-0.00000896;3774.61538365;4432.17948760;4176.02564089;4301.92307707;4169.99999986;4238.07692308;4201.92307686;4205.12820506
4205.12820506;4201.66666660;4172.05128192;4235.25641026;4795.76923195;2038.97435432;-0.00000896;-0.00000896;3749.35897332;4401.79487215;4201.66666660;4302.05128219;4143.46153826;4236.92307693;4202.05128199;4205.12820506
4204.10256404;4202.17948711;4201.15384609;4235.00000000;4930.00000146;2037.82050817;-0.00000896;-0.00000896;3775.38461442;4404.74359009;4206.41025634;4302.43589758;4201.41025634;4238.46153847;4202.30769224;4205.12820506
4205.12820506;4202.30769224;4201.15384609;4235.12820513;4825.64102690;2038.07691843;-0.00000896;-0.00000896;3775.89743493;4404.74359009;4175.76923063;4302.43589758;4171.41025628;4237.05128206;4204.61538455;4205.12820506
4203.84615378;4204.10256404;4170.64102551;4235.76923077;4861.15384748;2036.79486714;-0.00000896;-0.00000896;3748.84615281;4406.02564138;4202.17948711;4301.66666681;4168.33333320;4237.30769231;4201.92307686;4205.12820506
4204.61538455;4203.71794865;4174.74358961;4233.97435898;4831.28205254;2034.87179022;-0.00000896;-0.00000896;3774.48717852;4405.00000035;4201.02564096;4302.30769245;4142.30769210;4237.43589744;4203.71794865;4205.12820506
4204.74358968;4203.71794865;4173.58974345;4234.74358975;4861.53846286;2036.15384150;-0.00000896;-0.00000896;3748.71794768;4432.30769273;4204.61538455;4302.56410271;4169.48717935;4237.69230770;4204.10256404;4205.12820506
4205.25641019;4202.69230763;4203.20512814;4233.97435898;4891.15384755;2037.82050817;-0.00000896;-0.00000896;3748.46153742;4434.74359016;4207.69230763;4302.05128219;4172.94871781;4238.97435898;4202.17948711;4205.12820506
4204.74358968;4203.71794865;4204.23076917;4234.35897436;4828.97436023;2034.99999535;-0.00000896;-0.00000896;3774.35897339;4405.00000035;4202.17948711;4301.41025655;4174.23076910;4236.66666667;4175.64102551;4205.12820506
4205.38461532;4203.71794865;4202.82051275;4234.61538462;4832.69230895;2009.87179015;-0.00000896;-0.00000896;3777.30769134;4432.94871837;4205.64102558;4302.30769245;4201.79487173;4237.69230770;4202.17948711;4205.12820506
4205.76923070;4202.43589737;4206.66666660;4233.84615385;4892.17948857;2034.99999535;-0.00000896;-0.00000896;3776.15384518;4431.92307734;4205.25641019;4301.66666681;4173.58974345;4237.94871795;4202.17948711;4205.12820506
4207.17948711;4202.17948711;4201.28205122;4233.97435898;4793.07692426;2038.58973894;-0.00000896;-0.00000896;3778.20512724;4403.71794907;4203.97435891;4303.07692322;4171.53846140;4236.66666667;4202.17948711;4205.12820506
4205.64102558;4202.94871788;4201.41025634;4235.00000000;4928.46153992;2009.10255938;-0.00000896;-0.00000896;3777.56410160;4431.15384657;4201.53846147;4302.30769245;4173.46153833;4238.46153847;4202.17948711;4205.12820506
4204.74358968;4204.35897429;4202.69230763;4235.89743590;4794.23077042;2036.28204663;-0.00000896;-0.00000896;3777.43589647;4435.25641068;4173.33333320;4304.10256425;4175.38461525;4238.20512821;4202.17948711;4205.12820506
4204.74358968;4204.61538455;4206.15384609;4236.28205129;4890.76923216;2035.12820048;229.99999153;-0.00000896;3776.79487083;4432.43589786;4176.15384602;4302.05128219;4203.20512814;4237.05128206;4202.05128199;4205.12820506
4205.51282045;4203.33333327;4206.15384609;4235.64102564;4858.58974491;2035.89743125;229.99999153;-0.00000896;3777.69230672;4433.46153888;4202.17948711;4301.53846168;4171.79487166;4236.53846154;4202.30769224;4205.12820506
4203.46153840;4203.71794865;4206.15384609;4236.02564103;4832.30769356;2038.58973894;229.99999153;-0.00000896;3775.64102467;4432.69230811;4204.99999993;4302.17948732;4203.46153840;4237.43589744;4201.53846147;4205.12820506
4204.87179481;4203.71794865;4235.25641026;4236.66666667;4892.17948857;2037.17948253;229.99999153;-0.00000896;3775.51281954;4431.15384657;4204.23076917;4302.30769245;4201.41025634;4238.20512821;4202.30769224;4205.12820506
4204.74358968;4204.61538455;4205.64102558;4236.15384616;4860.64102697;2038.07691843;8275.25641881;-0.00000896;3748.20512717;4432.94871837;4202.56410250;4301.79487194;4176.28205115;4237.82051282;4202.30769224;4205.12820506
4204.23076917;4205.64102558;4208.07692301;4236.79487180;4862.43589876;2034.99999535;8275.00000855;-0.00000896;3746.79487076;4430.76923119;4202.43589737;4301.15384630;4174.23076910;4237.69230770;4201.66666660;4205.12820506
4205.12820506;4203.33333327;4202.94871788;4235.51282052;4799.87179606;2009.35896964;229.99999153;-0.00000896;3746.15384512;4432.94871837;4175.25641012;4303.07692322;4174.23076910;4236.15384616;4201.92307686;4205.12820506
4205.51282045;4203.71794865;4203.97435891;4236.41025641;4865.51282184;2035.64102099;8275.00000855;-0.00000896;3747.05128101;4435.89743632;4175.64102551;4302.82051296;4169.23076910;4237.43589744;4176.15384602;4205.12820506
4206.28205122;4202.43589737;4241.15384616;4235.00000000;4859.35897568;2038.58973894;229.99999153;-0.00000896;3746.41025537;4431.28205170;4203.20512814;4302.43589758;4202.56410250;4237.82051282;4201.92307686;4205.12820506
4206.66666660;4202.94871788;4274.23076930;4235.00000000;4863.97436030;2010.12820041;8275.00000855;-0.00000896;3748.46153742;4435.00000042;4205.12820506;4301.79487194;4236.28205129;4236.92307693;4201.92307686;4205.12820506
4205.51282045;4203.71794865;4372.17948746;4234.48717949;4859.10256543;2039.23076458;229.99999153;-0.00000896;3774.99999903;4434.35897478;4204.35897429;4303.71794886;4274.61538469;4237.30769231;4202.30769224;4205.12820506
4204.35897429;4203.07692301;4469.10256459;4235.76923077;4860.00000132;2036.15384150;8275.00000855;-0.00000896;3749.48717845;4434.61538504;4204.35897429;4302.69230784;4338.33333355;4237.30769231;4201.79487173;4205.12820506
4204.35897429;4203.46153840;4536.79487242;4234.23076923;4864.10256543;2035.25640560;229.99999153;-0.00000896;3775.51281954;4431.15384657;4205.12820506;4302.82051296;4372.94871823;4238.20512821;4202.17948711;4205.12820506
4204.99999993;4202.69230763;4599.61538538;4234.87179488;4857.69230902;2034.99999535;8275.00000855;-0.00000896;3749.61538358;4434.48717991;4233.84615385;4302.82051296;4434.10256452;4237.43589744;4204.87179481;4205.12820506
4205.64102558;4202.94871788;4630.12820597;4234.48717949;4862.43589876;2035.25640560;229.99999153;-0.00000896;3749.61538358;4436.15384657;4205.76923070;4302.30769245;4468.07692357;4238.20512821;4201.53846147;4205.12820506
4205.76923070;4201.79487173;4664.74359065;4208.97435891;4858.84615517;2035.76922612;8275.00000855;-0.00000896;3748.71794768;4432.94871837;4203.46153840;4303.84615399;4498.71794928;4237.69230770;4201.92307686;4205.12820506
4205.76923070;4202.30769224;4666.53846245;4209.10256404;4831.15384741;2008.20512348;229.99999153;-0.00000896;3748.71794768;4432.30769273;4204.10256404;4302.69230784;4497.94871851;4238.07692308;4201.41025634;4205.12820506
4206.79487173;4176.02564089;4665.89743680;4233.84615385;4863.58974491;2036.92307227;8275.00000855;-0.00000896;3775.38461442;4434.23076965;4201.79487173;4303.71794886;4498.33333389;4238.46153847;4202.05128199;4205.12820506
4206.53846147;4175.89743576;4663.33333424;4235.00000000;4860.38461671;2036.02563637;229.99999153;-0.00000896;3776.66666570;4405.51282086;4202.05128199;4302.30769245;4466.15384664;4237.69230770;4203.97435891;4205.12820506
4205.25641019;4201.79487173;4600.00000077;4235.25641026;4858.97436030;2038.07691843;8275.00000855;-0.00000896;3776.79487083;4430.76923119;4203.20512814;4302.43589758;4435.00000042;4237.56410257;4202.05128199;4205.12820506
4204.61538455;4201.92307686;4534.35897499;4236.41025641;4857.94871927;2038.97435432;229.99999153;-0.00000896;3775.89743493;4405.64102599;4205.89743583;4303.33333348;4400.76923112;4238.33333334;4202.30769224;4205.12820506
4205.12820506;4201.66666660;4465.38461587;4235.51282052;4894.87179627;2035.12820048;8275.00000855;-0.00000896;3776.15384518;4431.92307734;4202.30769224;4302.94871809;4338.46153867;4236.02564103;4202.05128199;4205.12820506
4203.71794865;4201.79487173;4404.35897471;4236.02564103;4865.25641158;2036.02563637;229.99999153;-0.00000896;3775.76922980;4434.23076965;4204.23076917;4302.56410271;4307.30769245;4238.33333334;4202.30769224;4205.12820506
4202.69230763;4201.15384609;4370.76923105;4235.89743590;4862.69230902;2038.71794407;8275.00000855;-0.00000896;3749.23076819;4405.64102599;4175.76923063;4302.43589758;4274.23076930;4237.30769231;4202.05128199;4205.12820506
4203.07692301;4201.53846147;4337.43589765;4235.64102564;4861.28205261;2038.46153381;229.99999153;-0.00000896;3747.43589640;4405.38461574;4203.33333327;4302.30769245;4299.87179501;4237.30769231;4175.76923063;4205.12820506
4203.71794865;4201.92307686;4336.15384637;4234.87179488;4826.79487305;2009.99999528;8275.00000855;-0.00000896;3748.71794768;4402.69230804;4236.02564103;4303.97435912;4270.00000007;4238.97435898;4202.43589737;4205.12820506
4204.35897429;4201.79487173;4302.30769245;4234.87179488;4894.35897575;2035.64102099;229.99999153;-0.00000896;3749.61538358;4434.10256452;4203.58974352;4302.43589758;4237.82051282;4237.94871795;4201.92307686;4205.12820506
4204.10256404;4201.66666660;4267.94871802;4235.89743590;4863.07692440;2037.82050817;8275.00000855;-0.00000896;3774.48717852;4402.82051317;4171.79487166;4303.46153860;4207.30769224;4238.07692308;4201.15384609;4205.12820506
4204.61538455;4201.41025634;4268.20512828;4233.97435898;4862.05128338;2005.64102092;229.99999153;-0.00000896;3775.64102467;4431.53846196;4203.07692301;4303.71794886;4234.35897436;4238.20512821;4202.05128199;4205.12820506
4203.97435891;4201.28205122;4239.23076923;4235.25641026;4924.23077069;2039.61537996;8275.00000855;-0.00000896;3774.99999903;4432.05128247;4206.02564096;4301.92307707;4234.61538462;4238.20512821;4201.28205122;4205.12820506
4203.97435891;4203.33333327;4235.51282052;4235.38461539;4793.84615503;2041.79486714;229.99999153;-0.00000896;3749.61538358;4405.76923112;4201.41025634;4303.33333348;4175.89743576;4237.05128206;4201.79487173;4205.12820506
4205.12820506;4204.10256404;4205.51282045;4234.87179488;4925.00000146;2006.79486707;8275.00000855;-0.00000896;3747.94871691;4434.10256452;4175.89743576;4301.79487194;4201.28205122;4237.82051282;4202.43589737;4205.12820506
4204.35897429;4204.61538455;4235.64102564;4209.10256404;4798.84615503;2005.12820041;229.99999153;-0.00000896;3748.71794768;4431.92307734;4176.15384602;4303.46153860;4202.94871788;4237.17948718;4202.30769224;4205.12820506
4204.74358968;4201.41025634;4205.51282045;4234.35897436;4896.53846293;2005.12820041;8276.79488035;-0.00000896;3775.51281954;4432.05128247;4205.64102558;4303.71794886;4175.25641012;4237.05128206;4202.17948711;4205.12820506
4204.74358968;4201.66666660;4203.97435891;4234.48717949;4798.20512939;2039.35896971;8212.82052123;-0.00000896;3748.97435794;4403.46153881;4208.07692301;4303.33333348;4201.79487173;4236.66666667;4201.92307686;4205.12820506
4205.25641019;4202.43589737;4171.02564089;4234.74358975;4827.56410382;2037.94871330;8277.69231624;-0.00000896;3749.61538358;4431.28205170;4204.35897429;4302.05128219;4171.41025628;4237.94871795;4202.43589737;4205.12820506
4204.74358968;4202.82051275;4168.97435884;4235.38461539;4926.53846300;2039.87179022;229.99999153;-0.00000896;3749.61538358;4400.64102599;4205.89743583;4302.56410271;4142.82051262;4235.76923077;4175.38461525;4205.12820506
4203.84615378;4202.94871788;4170.51282038;4235.25641026;4858.20512953;2038.58973894;229.99999153;-0.00000896;3749.61538358;4431.28205170;4204.23076917;4303.71794886;4169.61538448;4237.05128206;4202.05128199;4205.12820506
4204.23076917;4202.94871788;4168.46153833;4236.02564103;4859.10256543;2038.33332868;229.99999153;-0.00000896;3749.35897332;4430.89743632;4175.25641012;4301.79487194;4168.33333320;4237.30769231;4201.92307686;4205.12820506
4204.74358968;4203.33333327;4171.53846140;4234.48717949;4865.00000132;2035.12820048;229.99999153;-0.00000896;3749.10256306;4431.15384657;4236.41025641;4303.33333348;4173.58974345;4237.82051282;4201.92307686;4205.12820506
4204.61538455;4203.84615378;4168.33333320;4234.35897436;4864.87179620;2035.89743125;-0.00000896;-0.00000896;3748.97435794;4430.89743632;4206.28205122;4303.97435912;4172.17948704;4237.05128206;4202.82051275;4205.12820506
4204.87179481;4203.33333327;4169.61538448;4233.84615385;4892.43589883;2036.02563637;-0.00000896;-0.00000896;3748.97435794;4403.46153881;4238.46153847;4301.92307707;4174.35897422;4236.15384616;4202.43589737;4205.12820506
4205.64102558;4203.71794865;4109.23076896;4209.10256404;4891.02564242;2035.51281586;-0.00000896;-0.00000896;3775.25640929;4430.89743632;4206.66666660;4302.69230784;4137.56410236;4236.92307693;4202.17948711;4205.12820506
4205.64102558;4203.33333327;4138.33333313;4208.46153840;4857.56410389;2035.89743125;-0.00000896;-0.00000896;3774.61538365;4405.25641061;4201.92307686;4302.82051296;4137.56410236;4238.07692308;4201.79487173;4205.12820506
4205.64102558;4203.20512814;4142.17948697;4234.61538462;4828.97436023;2006.28204656;-0.00000896;-0.00000896;3775.89743493;4403.71794907;4204.35897429;4302.30769245;4142.69230749;4236.79487180;4202.05128199;4205.12820506
4204.23076917;4204.23076917;4138.33333313;4234.23076923;4927.30769377;2036.53845689;-0.00000896;-0.00000896;3777.56410160;4403.07692343;4206.15384609;4302.43589758;4142.69230749;4237.69230770;4202.17948711;4205.12820506
4204.87179481;4204.10256404;4139.48717928;4234.61538462;4825.76923202;2034.99999535;-0.00000896;-0.00000896;3777.82051185;4433.20512863;4205.25641019;4303.71794886;4139.10256390;4237.82051282;4202.17948711;4205.12820506
4204.61538455;4204.35897429;4106.28205101;4236.15384616;4924.74359121;2035.76922612;-0.00000896;-0.00000896;3776.53846057;4405.00000035;4175.38461525;4302.56410271;4136.28205108;4237.82051282;4202.69230763;4205.12820506
4204.87179481;4203.58974352;4139.48717928;4235.00000000;4799.87179606;2007.69230297;-0.00000896;-0.00000896;3776.41025544;4434.87179529;4203.84615378;4305.12820527;4141.15384595;4238.07692308;4201.79487173;4205.12820506
4205.64102558;4203.58974352;4139.74358954;4235.25641026;4862.82051414;2009.87179015;-0.00000896;-0.00000896;3776.79487083;4435.25641068;4207.17948711;4302.56410271;4142.17948697;4237.30769231;4201.41025634;4205.12820506
4204.87179481;4202.56410250;4110.38461511;4234.10256411;4865.51282184;2037.17948253;-0.00000896;-0.00000896;3775.25640929;4403.58974394;4202.94871788;4302.56410271;4135.76923056;4237.30769231;4202.17948711;4205.12820506
4204.87179481;4203.33333327;4106.15384588;4235.76923077;4827.30769356;2010.12820041;-0.00000896;-0.00000896;3776.66666570;4430.89743632;4175.51282038;4302.82051296;4138.84615364;4238.33333334;4201.02564096;4205.12820506
4204.61538455;4202.82051275;4075.64102530;4236.92307693;4858.97436030;2039.23076458;-0.00000896;-0.00000896;3775.38461442;4432.05128247;4175.12820499;4302.17948732;4076.28205094;4237.43589744;4202.05128199;4205.12820506
4204.23076917;4203.84615378;4108.46153819;4236.66666667;4896.28205268;2035.25640560;-0.00000896;-0.00000896;3776.02564006;4406.02564138;4175.25641012;4302.43589758;4136.66666646;4237.94871795;4201.79487173;4205.12820506
4203.97435891;4203.71794865;4136.53846133;4236.02564103;4825.25641151;2038.58973894;-0.00000896;-0.00000896;3776.28205031;4432.30769273;4206.79487173;4302.43589758;4138.07692287;4238.20512821;4202.82051275;4205.12820506
4204.48717942;4205.25641019;4103.20512793;4237.17948718;4928.20512967;2038.20512355;-0.00000896;-0.00000896;3749.35897332;4431.66666709;4174.74358961;4303.71794886;4109.61538434;4238.20512821;4202.17948711;4205.12820506
4204.23076917;4203.33333327;4109.23076896;4234.61538462;4798.33333452;2036.28204663;-0.00000896;-0.00000896;3741.53846050;4433.71794914;4173.33333320;4302.43589758;4140.76923056;4237.94871795;4202.05128199;4205.12820506
4202.82051275;4203.58974352;4108.97435870;4235.25641026;4923.46153992;2037.05127740;-0.00000896;-0.00000896;3747.56410153;4431.28205170;4204.10256404;4301.41025655;4109.99999973;4238.46153847;4201.79487173;4205.12820506
4205.25641019;4202.82051275;4105.76923050;4234.87179488;4829.10256536;2035.25640560;-0.00000896;-0.00000896;3748.71794768;4406.02564138;4201.53846147;4302.56410271;4137.43589723;4237.56410257;4203.33333327;4205.12820506
4204.48717942;4202.56410250;4107.94871767;4234.35897436;4859.10256543;2036.15384150;-0.00000896;-0.00000896;3774.35897339;4432.30769273;4204.87179481;4303.46153860;4107.69230742;4238.07692308;4202.17948711;4205.12820506
4204.23076917;4203.58974352;4108.46153819;4236.15384616;4923.46153992;2035.25640560;-0.00000896;-0.00000896;3749.35897332;4432.17948760;4174.23076910;4302.05128219;4136.02564082;4238.58974359;4204.35897429;4205.12820506
4204.61538455;4203.71794865;4106.53846126;4234.10256411;4826.15384741;2008.71794400;-0.00000896;-0.00000896;3775.64102467;4434.87179529;4169.87179474;4302.05128219;4135.64102544;4237.43589744;4202.05128199;4205.12820506
4204.10256404;4203.84615378;4106.66666639;4235.25641026;4859.23077055;2009.99999528;-0.00000896;-0.00000896;3776.66666570;4434.48717991;4201.79487173;4303.07692322;4135.51282031;4238.33333334;4201.92307686;4205.12820506
4204.23076917;4202.43589737;4135.51282031;4233.84615385;4796.92307811;2038.97435432;-0.00000896;-0.00000896;3775.76922980;4433.84615427;4174.61538448;4303.97435912;4109.74358947;4238.33333334;4202.05128199;4205.12820506
4204.74358968;4204.10256404;4108.58974332;4234.61538462;4861.53846286;2036.28204663;229.99999153;-0.00000896;3775.12820416;4405.12820548;4172.43589730;4302.69230784;4108.20512793;4238.46153847;4176.28205115;4205.12820506
4203.97435891;4203.58974352;4135.76923056;4234.23076923;4891.41025780;2035.76922612;8274.74359829;-0.00000896;3775.51281954;4434.48717991;4204.99999993;4303.97435912;4137.43589723;4238.84615385;4202.30769224;4205.12820506
4203.97435891;4203.46153840;4136.28205108;4235.38461539;4861.66666799;2037.30768766;104.35896561;-0.00000896;3775.38461442;4432.69230811;4173.20512807;4301.15384630;4110.64102537;4237.69230770;4204.61538455;4205.12820506
