Gyro-X;Gyro-Z;AF3;Gyro-Y;T7;Acc-X;Pz;QualityData_1;QualityData_2;Acc-Z;Acc-Y;T8;Mag-X;AF4;Mag-Z;Mag-Y;Mag-X;Gyro-X 
4234.35897436;4172.43589730;4568.71794942;4234.61538462;3782.30769134;2203.46153416;-0.00000896;-0.00000896;3254.35897228;4077.56410222;3912.17948649;4302.94871809;4535.89743653;4300.12820527;4201.15384609;4237.94871795
4239.61538462;4175.76923063;4599.48718026;4207.82051275;3774.99999903;2205.76922646;-0.00000896;-0.00000896;3283.07692107;4076.02564068;3712.30769120;4299.74358989;4531.53846217;4300.64102578;4172.94871781;4237.94871795
4269.61538469;4203.46153840;4762.82051394;4207.69230763;3712.94871684;2202.30768800;-0.00000896;-0.00000896;3288.58974158;4072.94871761;3585.51281913;4302.56410271;4730.25641130;4299.61538476;4172.05128192;4270.76923084
4273.33333341;4207.17948711;4699.10256508;4207.30769224;3744.74358871;2199.61538031;-0.00000896;-0.00000896;3316.02563908;4103.84615357;3811.28205038;4305.00000014;4665.25641116;4301.66666681;4173.20512807;4270.76923084
4274.74358982;4233.97435898;4961.15384769;4234.87179488;3713.20512710;2167.82050845;-0.00000896;-0.00000896;3322.17948524;4104.87179460;4005.76923029;4299.87179501;4793.84615503;4273.97435905;4171.92307679;4270.76923084
4300.51282066;4234.74358975;4635.51282135;4236.28205129;3780.38461442;2169.35896999;-0.00000896;-0.00000896;3348.46153659;4104.61538434;3842.69230686;4302.17948732;4599.35897513;4300.25641040;4172.82051269;4303.58974373
4274.74358982;4236.53846154;4665.25641116;4237.30769231;3683.20512703;2170.51281614;-0.00000896;-0.00000896;3349.74358787;4108.71794844;3975.89743535;4300.89743604;4597.82051359;4300.25641040;4172.69230756;4270.76923084
4272.82051289;4237.30769231;4532.82051345;4237.94871795;3683.58974241;2170.76922640;-0.00000896;-0.00000896;3351.28204941;4107.43589716;3713.58974248;4302.30769245;4635.38461622;4300.38461553;4174.23076910;4270.76923084
4269.61538469;4236.79487180;4961.53846307;4236.53846154;3841.79487096;2167.94871357;-0.00000896;-0.00000896;3351.79486992;4140.38461518;3813.97435807;4303.84615399;4666.79487270;4302.17948732;4173.20512807;4270.76923084
4241.53846154;4236.92307693;4730.25641130;4238.20512821;3875.89743514;2169.99999563;-0.00000896;-0.00000896;3351.28204941;4168.20512807;3907.69230700;4301.53846168;4533.84615448;4301.28205142;4172.94871781;4237.94871795
4237.30769231;4236.02564103;4693.46153944;4237.05128206;3840.25640943;2199.61538031;-0.00000896;-0.00000896;3322.43589549;4174.99999986;3781.79487083;4301.28205142;4600.00000077;4302.94871809;4173.07692294;4237.94871795
4235.76923077;4236.02564103;4828.58974484;4237.05128206;3648.07692183;2169.23076486;-0.00000896;-0.00000896;3321.15384421;4201.53846147;3643.58974234;4300.38461553;4503.84615441;4302.30769245;4173.33333320;4237.94871795
4207.82051275;4208.71794865;4700.38461636;4234.35897436;3812.94871705;2137.17948274;-0.00000896;-0.00000896;3322.94871601;4207.94871788;3842.56410173;4301.28205142;4728.20512925;4300.12820527;4172.69230756;4205.12820506
4206.02564096;4205.76923070;5058.46154020;4235.00000000;3617.82051150;2136.66666222;-0.00000896;-0.00000896;3322.82051088;4207.82051275;3813.20512731;4300.64102578;4797.30769349;4300.64102578;4175.12820499;4205.12820506
4202.94871788;4203.46153840;4730.76923182;4233.97435898;3742.30769127;2138.46153402;-0.00000896;-0.00000896;3321.02563908;4234.48717949;3774.61538365;4302.82051296;4600.64102641;4301.28205142;4173.46153833;4205.12820506
4202.30769224;4201.15384609;4663.97435988;4236.41025641;3808.84615295;2140.51281607;-0.00000896;-0.00000896;3320.25640831;4206.53846147;3880.51281975;4302.17948732;4532.30769294;4300.76923091;4172.82051269;4205.12820506
4175.12820499;4173.58974345;4698.84615482;4236.15384616;3712.69230658;2167.56409819;-0.00000896;-0.00000896;3321.92307498;4202.56410250;3778.46153749;4301.92307707;4634.10256494;4302.17948732;4173.20512807;4172.30769217
4174.10256397;4172.30769217;4761.02564214;4235.76923077;3872.94871719;2169.99999563;-0.00000896;-0.00000896;3319.61538267;4203.20512814;3677.43589626;4302.82051296;4503.58974415;4300.12820527;4170.76923063;4172.30769217
4171.79487166;4170.89743576;4761.53846265;4236.41025641;3774.87179390;2172.05127768;-0.00000896;-0.00000896;3318.33333139;4201.41025634;3807.43589654;4301.28205142;4697.43589841;4303.58974373;4172.94871781;4172.30769217
4171.02564089;4170.64102551;4795.25641144;4234.74358975;3616.41025509;2169.35896999;-0.00000896;-0.00000896;3318.20512626;4203.33333327;3843.33333250;4301.41025655;4634.87179571;4301.15384630;4172.82051269;4172.30769217
4171.28205115;4169.99999986;4792.69230888;4234.61538462;3646.92307568;2166.28204691;-0.00000896;-0.00000896;3318.33333139;4170.51282038;3746.92307588;4301.02564117;4665.76923168;4300.89743604;4175.64102551;4172.30769217
4170.64102551;4168.33333320;4733.71794976;4234.10256411;3715.38461428;2169.74358537;229.99999153;-0.00000896;3288.07692107;4141.66666646;3943.20512758;4301.02564117;4596.79487256;4300.64102578;4172.94871781;4172.30769217
4171.28205115;4169.10256397;4995.38461699;4234.23076923;3876.15384539;2169.87179050;229.99999153;-0.00000896;3287.69230568;4136.79487159;3781.02564006;4301.41025655;4859.87179620;4274.61538469;4173.84615371;4172.30769217
4173.71794858;4170.38461525;4829.87179613;4208.97435891;3841.28205045;2171.41025204;229.99999153;-0.00000896;3290.12820312;4135.76923056;3977.94871740;4300.12820527;4665.51282142;4302.69230784;4173.20512807;4172.30769217
4176.02564089;4171.41025628;4601.15384692;4209.10256404;3613.33333202;2172.17948281;229.99999153;-0.00000896;3314.87179293;4103.97435870;3845.89743507;4302.69230784;4502.94871851;4301.28205142;4173.46153833;4172.30769217
4204.35897429;4173.20512807;4727.82051387;4207.94871788;3712.82051171;2170.64102127;-0.00000896;-0.00000896;3317.69230575;4077.56410222;3782.30769134;4302.82051296;4634.61538545;4301.53846168;4172.56410243;4205.12820506
4206.02564096;4175.38461525;4664.10256501;4234.35897436;3614.87179356;2172.82050845;0.51281155;-0.00000896;3319.61538267;4074.87179453;3711.92307582;4302.30769245;4631.53846238;4299.87179501;4172.82051269;4205.12820506
4208.33333327;4201.28205122;4698.97435995;4234.74358975;3777.17948621;2200.76922646;229.99999153;-0.00000896;3319.48717755;4075.76923043;3939.23076861;4302.30769245;4726.92307797;4301.28205142;4173.46153833;4205.12820506
4235.89743590;4204.10256404;4567.94871865;4235.64102564;3781.15384518;2170.64102127;0.51281155;-0.00000896;3316.02563908;4076.15384581;3973.20512765;4302.05128219;4502.82051338;4300.25641040;4172.69230756;4237.94871795
4240.12820513;4205.25641019;4665.25641116;4236.79487180;3745.76922973;2169.61538024;229.99999153;-0.00000896;3318.84615190;4075.89743555;3846.41025558;4300.76923091;4601.28205205;4301.15384630;4173.46153833;4237.94871795
4266.79487187;4208.84615378;4693.46153944;4238.46153847;3781.66666570;2173.33332896;0.51281155;-0.00000896;3320.64102370;4077.43589709;3616.53846022;4300.51282066;4503.58974415;4300.89743604;4172.69230756;4270.76923084
4269.61538469;4234.74358975;4862.56410389;4239.61538462;3776.92307595;2169.48717511;229.99999153;-0.00000896;3349.48717761;4103.97435870;3714.74358864;4301.66666681;4792.56410375;4300.12820527;4172.94871781;4270.76923084
4269.61538469;4235.12820513;4667.05128296;4240.76923077;3744.10256306;2166.15384178;0.51281155;-0.00000896;3350.64102377;4135.51282031;3940.89743528;4302.69230784;4667.43589834;4300.64102578;4172.94871781;4270.76923084
4268.84615392;4235.64102564;4764.74359086;4241.02564103;3646.02563978;2173.58973922;229.99999153;-0.00000896;3322.69230575;4138.46153826;3780.25640929;4303.20512835;4632.17948802;4301.53846168;4172.82051269;4270.76923084
4266.92307700;4235.25641026;4762.56410368;4241.28205129;3781.79487083;2170.25640588;0.51281155;-0.00000896;3320.64102370;4169.35897422;4008.20512772;4300.51282066;4665.76923168;4301.28205142;4172.56410243;4270.76923084
4238.71794872;4235.00000000;4862.43589876;4239.35897436;3741.79487076;2167.69230332;229.99999153;-0.00000896;3349.35897249;4172.94871781;3612.43589612;4305.25641040;4727.43589848;4299.61538476;4172.94871781;4237.94871795
4236.66666667;4208.97435891;4894.61538601;4238.07692308;3845.12820430;2136.53845710;0.51281155;-0.00000896;3348.33333146;4174.61538448;3911.41025572;4300.51282066;4762.43589855;4300.12820527;4172.82051269;4237.94871795
4208.58974352;4206.15384609;4697.69230867;4237.69230770;3779.74358877;2137.17948274;229.99999153;-0.00000896;3349.48717761;4201.41025634;3944.10256348;4300.25641040;4600.51282128;4300.89743604;4174.10256397;4205.12820506
4203.71794865;4203.97435891;4728.07692412;4236.79487180;3841.02564020;2139.23076479;0.51281155;-0.00000896;3322.69230575;4202.94871788;3873.84615309;4300.38461553;4469.23076972;4301.66666681;4172.69230756;4205.12820506
4176.28205115;4175.76923063;4665.25641116;4237.05128206;3812.94871705;2168.07691870;229.99999153;-0.00000896;3320.38461344;4203.20512814;3678.97435780;4300.38461553;4627.82051366;4301.53846168;4171.92307679;4172.30769217
4174.35897422;4173.46153833;4860.12820645;4237.17948718;3779.35897339;2169.61538024;0.51281155;-0.00000896;3316.15384421;4173.84615371;3644.74358850;4299.87179501;4564.87179557;4301.92307707;4172.56410243;4172.30769217
4171.28205115;4173.58974345;4727.43589848;4235.89743590;3716.79487069;2167.94871357;229.99999153;-0.00000896;3289.10256209;4174.48717935;3843.07692225;4299.61538476;4727.43589848;4302.05128219;4173.07692294;4172.30769217
4170.12820499;4171.79487166;4761.15384727;4237.56410257;3646.02563978;2168.46153409;0.51281155;-0.00000896;3288.58974158;4173.07692294;3782.30769134;4299.61538476;4700.38461636;4301.41025655;4175.76923063;4172.30769217
4169.48717935;4171.28205115;4667.82051373;4235.89743590;3809.35897346;2170.76922640;229.99999153;-0.00000896;3289.35897235;4173.71794858;3912.30769162;4301.79487194;4534.35897499;4301.41025655;4172.82051269;4172.30769217
4168.71794858;4169.99999986;4696.15384713;4235.25641026;3743.33333229;2173.97435460;0.51281155;-0.00000896;3287.05128004;4172.17948704;3944.35897374;4300.38461553;4667.94871886;4300.89743604;4173.20512807;4172.30769217
4169.35897422;4170.51282038;4533.20512883;4235.12820513;3682.05128087;2171.02563665;229.99999153;-0.00000896;3288.20512619;4170.12820499;3709.48717838;4300.51282066;4598.20512897;4274.35897443;4173.07692294;4172.30769217
4169.74358961;4168.84615371;4897.56410396;4234.87179488;3813.07692218;2169.48717511;0.51281155;-0.00000896;3287.94871594;4168.33333320;3748.71794768;4301.28205142;4827.56410382;4299.74358989;4172.69230756;4172.30769217
4171.28205115;4168.71794858;4633.84615468;4234.87179488;3749.48717845;2168.58973922;229.99999153;-0.00000896;3287.17948517;4142.94871774;3877.43589668;4302.05128219;4596.28205205;4301.53846168;4172.56410243;4172.30769217
4172.69230756;4168.46153833;4764.10256522;4236.28205129;3549.23076778;2199.48717518;0.51281155;-0.00000896;3283.97435696;4136.15384595;3616.28204997;4301.41025655;4666.92307783;4299.87179501;4172.82051269;4172.30769217
4175.12820499;4170.12820499;4762.69230881;4235.51282052;3775.12820416;2202.56409826;229.99999153;-0.00000896;3284.23076722;4105.64102537;3841.28205045;4301.79487194;4700.38461636;4300.12820527;4173.20512807;4172.30769217
4203.46153840;4173.46153833;4892.69230909;4236.02564103;3779.10256313;2200.64102134;0.51281155;-0.00000896;3283.84615183;4109.87179460;3940.76923015;4302.05128219;4824.61538587;4301.15384630;4173.58974345;4205.12820506
4206.79487173;4174.74358961;4597.82051359;4235.38461539;3741.92307588;2173.71794434;229.99999153;-0.00000896;3289.48717748;4076.28205094;3944.48717887;4301.79487194;4564.61538531;4302.43589758;4173.07692294;4205.12820506
4208.84615378;4176.15384602;4596.41025718;4234.48717949;3775.38461442;2199.74358544;0.51281155;-0.00000896;3316.15384421;4075.38461504;3779.23076826;4301.92307707;4503.46153902;4300.38461553;4172.56410243;4205.12820506
4236.53846154;4202.56410250;4766.66666778;4234.74358975;3614.48717817;2201.79486749;229.99999153;-0.00000896;3315.51281857;4071.66666632;3648.07692183;4302.43589758;4471.28205177;4300.51282066;4174.35897422;4237.94871795
4238.46153847;4205.12820506;4766.53846265;4235.00000000;3781.02564006;2200.25640595;35.89742701;-0.00000896;3315.64102370;4070.89743555;3681.92307575;4304.35897450;4694.48718046;4300.25641040;4172.82051269;4237.94871795
4240.00000000;4207.43589737;4928.71795018;4236.53846154;3711.15384505;2173.33332896;1.79486283;-0.00000896;3289.99999799;4075.51282017;3946.02564040;4274.74358982;4701.15384713;4300.89743604;4173.71794858;4237.94871795
4241.41025641;4208.97435891;4795.00000119;4237.94871795;3873.71794796;2171.53845716;34.10255521;-0.00000896;3317.43589549;4105.51282024;3716.41025530;4302.05128219;4562.94871865;4300.25641040;4172.43589730;4237.94871795
4241.15384616;4234.10256411;4730.64102669;4237.82051282;3807.94871705;2170.89743152;229.99999153;-0.00000896;3318.46153652;4102.82051255;3976.66666611;4301.92307707;4568.33333403;4299.61538476;4172.94871781;4237.94871795
4240.76923077;4233.97435898;4734.10256515;4236.92307693;3683.71794754;2168.33332896;229.99999153;-0.00000896;3318.97435703;4110.25640998;3611.79487048;4300.12820527;4629.10256494;4302.30769245;4172.30769217;4237.94871795
4239.48717949;4233.84615385;4892.17948857;4237.94871795;3873.07692232;2141.41025197;229.99999153;-0.00000896;3319.99999806;4137.56410236;3874.74358898;4303.84615399;4698.97435995;4300.51282066;4174.10256397;4237.94871795
4236.79487180;4233.97435898;4759.87179599;4237.56410257;3845.64102481;2140.51281607;229.99999153;-0.00000896;3318.46153652;4139.35897415;3906.92307623;4301.53846168;4734.23077028;4301.28205142;4172.69230756;4237.94871795
4234.23076923;4206.53846147;4667.69230860;4236.41025641;3780.89743493;2141.41025197;-0.00000896;-0.00000896;3318.46153652;4142.30769210;3876.28205052;4272.69230777;4628.97435981;4300.25641040;4172.94871781;4237.94871795
4205.38461532;4205.38461532;4635.38461622;4234.23076923;3807.43589654;2141.41025197;-0.00000896;-0.00000896;3318.07692114;4171.53846140;3908.07692239;4302.56410271;4496.79487235;4302.56410271;4172.82051269;4205.12820506
4203.71794865;4203.97435891;4825.12820638;4208.33333327;3748.71794768;2141.02563658;-0.00000896;-0.00000896;3320.76922883;4172.94871781;3844.48717866;4305.76923091;4668.20512911;4300.89743604;4173.71794858;4205.12820506
4176.28205115;4175.89743576;4727.30769335;4208.71794865;3877.05128129;2141.15384171;-0.00000896;-0.00000896;3321.92307498;4170.51282038;3676.28205010;4302.94871809;4569.61538531;4300.76923091;4170.12820499;4172.30769217
4173.33333320;4175.38461525;4832.56410382;4233.97435898;3843.46153763;2167.43589306;-0.00000896;-0.00000896;3322.43589549;4172.56410243;3844.35897353;4301.66666681;4694.23077021;4301.79487194;4172.82051269;4172.30769217
4172.30769217;4172.56410243;4701.28205226;4235.89743590;3646.02563978;2169.23076486;-0.00000896;-0.00000896;3320.25640831;4170.64102551;4009.23076875;4303.97435912;4568.33333403;4300.76923091;4173.20512807;4172.30769217
4170.64102551;4171.41025628;4763.71794983;4236.41025641;3675.89743472;2170.38461101;-0.00000896;-0.00000896;3321.02563908;4173.71794858;3776.28205031;4301.02564117;4602.43589820;4301.02564117;4172.69230756;4172.30769217
4169.23076910;4171.02564089;4892.43589883;4237.43589744;3813.46153756;2170.12820075;-0.00000896;-0.00000896;3320.38461344;4169.87179474;3745.64102460;4300.76923091;4665.51282142;4301.28205142;4175.12820499;4172.30769217
4168.71794858;4170.25641012;4667.56410347;4237.05128206;3809.99999910;2173.20512383;-0.00000896;-0.00000896;3317.43589549;4168.46153833;3551.53846008;4301.02564117;4698.97435995;4300.38461553;4173.20512807;4172.30769217
4143.33333313;4169.23076910;4733.97436002;4237.69230770;3714.35897325;2174.10255973;-0.00000896;-0.00000896;3317.82051088;4139.10256390;3908.07692239;4300.64102578;4661.53846245;4301.28205142;4173.58974345;4139.48717928
4168.33333320;4169.23076910;4567.43589813;4237.30769231;3613.58974227;2199.10255980;-0.00000896;-0.00000896;3288.84615183;4136.79487159;3781.15384518;4301.79487194;4661.15384706;4302.17948732;4172.94871781;4172.30769217
4170.89743576;4170.38461525;4666.92307783;4239.23076923;3777.30769134;2198.97435467;-0.00000896;-0.00000896;3285.89743389;4108.97435870;3945.25640963;4300.00000014;4566.15384685;4301.53846168;4172.82051269;4172.30769217
4174.74358961;4172.43589730;4699.87179585;4239.61538462;3743.20512717;2170.38461101;-0.00000896;-0.00000896;3283.84615183;4107.30769203;3910.51281982;4301.15384630;4667.82051373;4303.20512835;4172.56410243;4172.30769217
4204.87179481;4174.35897422;4564.74359044;4240.76923077;3913.20512751;2205.25640595;-0.00000896;-0.00000896;3255.89743382;4077.43589709;3711.92307582;4301.66666681;4467.82051331;4301.28205142;4172.69230756;4205.12820506
4209.10256404;4175.38461525;4829.23077049;4241.53846154;3711.15384505;2202.69230339;-0.00000896;-0.00000896;3254.87179279;4073.46153812;3842.05128122;4302.82051296;4667.43589834;4302.43589758;4172.82051269;4205.12820506
4238.97435898;4202.56410250;4600.76923154;4238.20512821;3679.10256293;2172.43589306;-0.00000896;-0.00000896;3282.43589542;4072.43589709;3945.64102502;4302.69230784;4633.58974443;4299.48717963;4172.69230756;4237.94871795
4241.41025641;4204.35897429;4632.30769315;4238.84615385;3617.56410125;2171.66666229;-0.00000896;-0.00000896;3286.02563901;4071.02564068;3709.48717838;4303.33333348;4635.64102648;4300.76923091;4173.71794858;4237.94871795
4269.61538469;4205.76923070;4961.92307846;4236.92307693;3844.61538379;2174.10255973;-0.00000896;-0.00000896;3286.53845953;4043.71794830;3807.56410166;4301.28205142;4734.10256515;4301.02564117;4172.82051269;4270.76923084
4272.17948725;4208.84615378;4828.58974484;4238.58974359;3880.38461462;2172.56409819;-0.00000896;-0.00000896;3288.07692107;4044.99999959;3715.64102453;4301.15384630;4629.48718032;4302.17948732;4172.82051269;4270.76923084
4272.69230777;4234.61538462;4694.87179585;4238.71794872;3872.94871719;2172.05127768;-0.00000896;-0.00000896;3287.94871594;4072.56410222;4006.15384567;4302.05128219;4570.00000070;4300.76923091;4172.56410243;4270.76923084
4271.53846161;4235.76923077;4631.53846238;4238.71794872;3617.05128073;2170.76922640;-0.00000896;-0.00000896;3289.35897235;4076.28205094;3678.97435780;4300.25641040;4536.79487242;4301.28205142;4173.07692294;4270.76923084
4268.71794879;4235.89743590;4859.87179620;4236.02564103;3810.38461449;2168.97435460;-0.00000896;-0.00000896;3287.94871594;4108.46153819;3975.51281996;4303.07692322;4733.20512925;4300.25641040;4173.20512807;4270.76923084
4240.89743590;4234.48717949;4630.38461622;4234.35897436;3741.66666563;2141.02563658;-0.00000896;-0.00000896;3286.02563901;4136.15384595;3841.02564020;4301.53846168;4627.82051366;4300.89743604;4170.89743576;4237.94871795
4238.71794872;4208.46153840;4630.51282135;4208.84615378;3709.48717838;2167.05127768;-0.00000896;-0.00000896;3286.28204927;4139.74358954;3813.20512731;4301.53846168;4662.05128296;4300.89743604;4170.89743576;4237.94871795
4238.07692308;4208.07692301;4862.82051414;4207.56410250;3650.89743465;2169.74358537;-0.00000896;-0.00000896;3286.92307491;4142.69230749;3745.89743486;4302.17948732;4595.89743667;4301.28205142;4173.20512807;4237.94871795
4237.05128206;4207.69230763;4759.48718060;4207.43589737;3841.92307609;2169.35896999;229.99999153;-0.00000896;3288.58974158;4142.17948697;3813.71794782;4301.66666681;4728.46153951;4301.66666681;4174.10256397;4237.94871795
4235.89743590;4206.41025634;4668.46153937;4206.66666660;3708.84615274;2169.10255973;229.99999153;-0.00000896;3316.28204934;4170.64102551;3813.46153756;4303.33333348;4694.10256508;4302.69230784;4172.56410243;4237.94871795
4234.35897436;4205.25641019;4534.10256473;4208.07692301;3813.46153756;2171.02563665;229.99999153;-0.00000896;3318.84615190;4170.64102551;3847.05128122;4304.35897450;4504.23076979;4301.79487194;4174.48717935;4237.94871795
4207.94871788;4203.07692301;4661.41025732;4206.79487173;3682.17948600;2171.28204691;229.99999153;-0.00000896;3321.53845960;4171.28205115;3974.35897381;4301.28205142;4697.17948816;4299.61538476;4172.94871781;4205.12820506
4205.89743583;4203.71794865;4695.25641123;4234.61538462;3713.58974248;2172.56409819;104.35896561;-0.00000896;3317.30769037;4168.97435884;3748.20512717;4302.43589758;4665.51282142;4300.38461553;4172.17948704;4205.12820506
4205.76923070;4204.48717942;5124.48718137;4234.23076923;3877.82051206;2174.23076486;-0.00000896;-0.00000896;3289.87179286;4170.51282038;3873.58974283;4303.20512835;4796.41025760;4302.69230784;4172.56410243;4205.12820506
4206.66666660;4204.61538455;4765.12820624;4235.76923077;3741.66666563;2173.58973922;229.99999153;-0.00000896;3289.87179286;4171.15384602;3972.56410201;4301.28205142;4598.71794949;4301.15384630;4174.23076910;4205.12820506
4206.79487173;4202.94871788;4793.58974477;4236.28205129;3645.76922952;2172.17948281;-0.00000896;-0.00000896;3316.41025447;4168.84615371;3809.10256320;4302.69230784;4631.53846238;4302.05128219;4172.94871781;4205.12820506
4206.15384609;4201.92307686;4831.92307818;4235.12820513;3775.25640929;2171.02563665;229.99999153;-0.00000896;3316.15384421;4142.56410236;3744.10256306;4302.17948732;4666.41025732;4274.48717956;4172.56410243;4205.12820506
4206.41025634;4201.79487173;4759.48718060;4236.53846154;3775.38461442;2170.89743152;-0.00000896;-0.00000896;3289.74358773;4140.38461518;3547.94871649;4301.66666681;4597.30769308;4301.15384630;4169.48717935;4205.12820506
4206.15384609;4201.41025634;4664.61538552;4235.76923077;3778.20512724;2172.94871357;229.99999153;-0.00000896;3315.38461344;4140.76923056;3811.92307602;4300.76923091;4664.48718039;4300.12820527;4172.82051269;4205.12820506
4206.28205122;4201.15384609;4791.79487298;4237.43589744;3644.10256286;2170.12820075;-0.00000896;-0.00000896;3317.17948524;4137.82051262;3875.12820437;4302.43589758;4661.41025732;4274.61538469;4172.43589730;4205.12820506
4205.76923070;4175.89743576;4701.15384713;4236.79487180;3781.02564006;2170.12820075;229.99999153;-0.00000896;3315.76922883;4135.89743569;3814.74358884;4300.38461553;4497.43589800;4301.41025655;4172.43589730;4205.12820506
4204.48717942;4175.51282038;4698.46153944;4237.56410257;3716.53846043;2169.61538024;-0.00000896;-0.00000896;3316.28204934;4108.71794844;3943.07692246;4299.87179501;4695.89743687;4302.56410271;4173.07692294;4205.12820506
4204.23076917;4175.64102551;4529.23076986;4236.02564103;3681.28205010;2170.51281614;229.99999153;-0.00000896;3289.48717748;4106.53846126;3711.41025530;4299.74358989;4535.51282114;4299.48717963;4172.69230756;4205.12820506
4204.74358968;4175.12820499;4923.58974505;4237.30769231;3815.12820423;2173.84614947;-0.00000896;-0.00000896;3288.71794671;4076.66666632;3879.87179411;4300.51282066;5092.69230950;4301.53846168;4173.20512807;4205.12820506
4205.38461532;4175.38461525;4668.46153937;4236.41025641;3676.53846036;2171.66666229;229.99999153;-0.00000896;3287.43589542;4076.79487145;3911.02564033;4301.79487194;4664.10256501;4301.41025655;4172.69230756;4205.12820506
4207.05128199;4201.15384609;4699.87179585;4236.02564103;3644.74358850;2170.89743152;-0.00000896;-0.00000896;3286.15384414;4109.48717921;3679.35897318;4302.17948732;4600.00000077;4303.33333348;4172.43589730;4205.12820506
4207.56410250;4176.28205115;5123.33333521;4236.53846154;3847.94871712;2168.33332896;229.99999153;-0.00000896;3287.05128004;4071.79487145;3780.89743493;4302.43589758;4665.38461629;4300.00000014;4172.56410243;4205.12820506
4208.84615378;4203.46153840;4763.46153958;4235.51282052;3872.82051206;2169.61538024;-0.00000896;-0.00000896;3288.46153645;4103.07692280;3744.23076819;4303.07692322;4596.15384692;4301.66666681;4171.15384602;4205.12820506
4208.97435891;4203.71794865;4795.38461657;4236.28205129;3878.33333257;2171.15384178;229.99999153;-0.00000896;3287.82051081;4076.41025607;3978.20512765;4301.02564117;4568.71794942;4301.41025655;4172.69230756;4205.12820506
4208.97435891;4205.51282045;4634.48718032;4234.48717949;3748.84615281;2172.05127768;-0.00000896;-0.00000896;3289.10256209;4104.35897408;3748.20512717;4301.15384630;4566.41025711;4303.58974373;4172.43589730;4205.12820506
4207.82051275;4206.79487173;4798.58974477;4235.38461539;3648.58974234;2170.89743152;229.99999153;-0.00000896;3315.25640831;4106.02564075;3618.33333202;4303.46153860;4568.84615454;4301.28205142;4170.51282038;4205.12820506
4208.20512814;4206.92307686;4762.30769342;4234.61538462;3715.25640915;2168.84614947;-0.00000896;-0.00000896;3316.02563908;4110.38461511;3775.64102467;4302.69230784;4668.20512911;4301.02564117;4172.56410243;4205.12820506
4205.64102558;4207.43589737;4960.38461692;4235.51282052;3807.30769141;2167.82050845;229.99999153;-0.00000896;3314.99999806;4139.35897415;3814.10256320;4301.66666681;4731.66666771;4301.66666681;4173.20512807;4205.12820506
4203.46153840;4206.66666660;4829.61538587;4235.38461539;3908.20512751;2169.74358537;-0.00000896;-0.00000896;3289.23076722;4169.87179474;3774.35897339;4303.58974373;4668.58974450;4274.74358982;4172.69230756;4205.12820506
4201.53846147;4204.23076917;4762.56410368;4235.25641026;3643.33333209;2168.07691870;229.99999153;-0.00000896;3316.28204934;4169.99999986;3846.53846071;4301.41025655;4700.89743687;4302.69230784;4172.69230756;4205.12820506
4175.64102551;4176.28205115;4826.66666792;4208.97435891;3814.99999910;2167.94871357;-0.00000896;-0.00000896;3316.28204934;4172.05128192;3748.71794768;4302.43589758;4763.84615496;4302.43589758;4172.56410243;4172.30769217
4172.43589730;4174.35897422;4829.23077049;4208.46153840;3843.20512738;2172.69230332;229.99999153;-0.00000896;3316.92307498;4171.92307679;3941.15384553;4300.51282066;4759.61538573;4300.25641040;4172.69230756;4172.30769217
4172.56410243;4172.17948704;4762.43589855;4208.84615378;3778.07692211;2172.69230332;-0.00000896;-0.00000896;3315.89743396;4170.89743576;3810.64102474;4304.23076937;4569.10256480;4300.64102578;4172.69230756;4172.30769217
4170.76923063;4170.89743576;4665.76923168;4234.23076923;3846.92307609;2169.87179050;229.99999153;-0.00000896;3319.87179293;4142.69230749;3977.17948663;4302.30769245;4568.46153916;4302.69230784;4172.17948704;4172.30769217
4171.79487166;4170.51282038;4726.92307797;4235.64102564;3612.17948586;2170.38461101;-0.00000896;-0.00000896;3317.43589549;4142.30769210;3649.99999875;4300.51282066;4504.48718005;4300.38461553;4170.89743576;4172.30769217
4173.46153833;4169.87179474;4763.71794983;4235.89743590;3841.66666584;2203.71794441;229.99999153;-0.00000896;3316.92307498;4139.74358954;3978.07692252;4300.12820527;4700.00000098;4301.79487194;4172.94871781;4172.30769217
4175.64102551;4169.23076910;4793.84615503;4238.33333334;3807.82051192;2173.33332896;-0.00000896;-0.00000896;3318.97435703;4139.48717928;3714.10256299;4301.28205142;4597.30769308;4300.64102578;4173.07692294;4172.30769217
4175.38461525;4168.46153833;4794.10256529;4239.48717949;3844.23076840;2173.71794434;-0.00000896;-0.00000896;3317.30769037;4138.07692287;3780.64102467;4299.61538476;4698.07692405;4302.17948732;4173.07692294;4172.30769217
4201.79487173;4142.30769210;4664.87179578;4240.12820513;3646.41025516;2199.99999570;8244.35898284;-0.00000896;3315.64102370;4105.64102537;3877.69230693;4301.41025655;4531.79487242;4300.89743604;4172.43589730;4205.12820506
4203.71794865;4170.38461525;4700.38461636;4240.76923077;3710.38461428;2200.76922646;229.99999153;-0.00000896;3286.92307491;4075.64102530;3912.82051213;4301.28205142;4628.20512904;4301.02564117;4172.17948704;4205.12820506
4206.15384609;4170.51282038;4662.69230860;4266.79487187;3746.41025537;2201.92307262;229.99999153;-0.00000896;3284.23076722;4072.17948684;3583.58974220;4302.05128219;4502.05128261;4303.33333348;4172.17948704;4205.12820506
4208.46153840;4173.71794858;4734.23077028;4241.41025641;3811.28205038;2201.79486749;229.99999153;-0.00000896;3283.20512619;4072.30769196;3748.20512717;4301.53846168;4730.89743694;4302.05128219;4172.43589730;4205.12820506
4209.10256404;4175.89743576;4733.84615489;4266.92307700;3617.94871663;2201.28204698;229.99999153;-0.00000896;3283.07692107;4069.74358940;3876.66666591;4301.15384630;4635.51282135;4302.17948732;4171.66666653;4205.12820506
4234.35897436;4201.92307686;4570.12820583;4240.51282052;3746.92307588;2200.12820082;-0.00000896;-0.00000896;3256.66666459;4072.56410222;3774.61538365;4302.05128219;4566.15384685;4300.89743604;4172.17948704;4237.94871795
4234.48717949;4203.58974352;4763.58974471;4238.33333334;3745.64102460;2199.87179057;-0.00000896;-0.00000896;3255.25640818;4075.25640991;3713.97435787;4302.17948732;4563.84615454;4303.84615399;4172.17948704;4237.94871795
4234.61538462;4204.99999993;4633.97435981;4238.20512821;3744.61538358;2172.17948281;-0.00000896;-0.00000896;3254.74358766;4077.17948684;3616.53846022;4301.28205142;4698.46153944;4301.79487194;4172.43589730;4237.94871795
4235.38461539;4205.64102558;4832.30769356;4235.64102564;3809.23076833;2171.53845716;-0.00000896;-0.00000896;3257.30769023;4105.12820485;3811.41025551;4302.82051296;4733.58974464;4300.76923091;4172.30769217;4237.94871795
4235.12820513;4206.53846147;4733.07692412;4236.92307693;3712.94871684;2168.20512383;-0.00000896;-0.00000896;3257.05127997;4106.92307665;4009.48717900;4301.15384630;4632.69230853;4301.66666681;4173.20512807;4237.94871795
4236.41025641;4205.76923070;4793.33333452;4236.28205129;3749.48717845;2169.74358537;-0.00000896;-0.00000896;3284.23076722;4107.43589716;3905.76923008;4301.79487194;4596.79487256;4302.05128219;4172.05128192;4237.94871795
4235.51282052;4204.99999993;4628.97435981;4236.02564103;3744.61538358;2166.53845716;-0.00000896;-0.00000896;3286.79486978;4135.76923056;3713.84615274;4304.10256425;4635.76923161;4302.69230784;4172.30769217;4237.94871795
4234.23076923;4203.97435891;4923.07692454;4236.02564103;3874.61538385;2170.89743152;-0.00000896;-0.00000896;3284.99999799;4109.23076896;3814.35897346;4300.12820527;4629.23077007;4301.53846168;4172.43589730;4237.94871795
4208.20512814;4203.58974352;4728.07692412;4236.53846154;3680.12820395;2172.56409819;-0.00000896;-0.00000896;3286.28204927;4136.79487159;4042.56410215;4301.53846168;4697.05128303;4302.05128219;4172.43589730;4205.12820506
4208.46153840;4203.07692301;4761.92307804;4234.48717949;3842.05128122;2174.10255973;-0.00000896;-0.00000896;3287.82051081;4137.17948697;3874.74358898;4299.74358989;4663.07692398;4303.84615399;4172.69230756;4205.12820506
4207.56410250;4202.69230763;4796.79487298;4236.28205129;3611.41025509;2169.74358537;-0.00000896;-0.00000896;3288.71794671;4138.84615364;3843.97435814;4300.76923091;4597.30769308;4302.94871809;4172.56410243;4205.12820506
4207.17948711;4176.02564089;4797.43589862;4237.43589744;3843.07692225;2170.89743152;-0.00000896;-0.00000896;3316.79486985;4141.41025621;3912.30769162;4302.43589758;4728.84615489;4302.30769245;4172.43589730;4205.12820506
4206.41025634;4174.87179474;4861.66666799;4238.33333334;3781.79487083;2171.28204691;-0.00000896;-0.00000896;3316.53845960;4137.82051262;3777.69230672;4302.05128219;4797.56410375;4301.15384630;4172.30769217;4205.12820506
4204.48717942;4173.20512807;4798.07692426;4239.74358975;3844.35897353;2201.92307262;-0.00000896;-0.00000896;3316.66666472;4135.89743569;3876.28205052;4302.30769245;4635.76923161;4302.56410271;4172.69230756;4205.12820506
4203.07692301;4173.46153833;4733.97436002;4240.00000000;3643.33333209;2202.43589313;-0.00000896;-0.00000896;3316.28204934;4138.97435877;3878.46153770;4304.10256425;4534.10256473;4301.92307707;4172.30769217;4205.12820506
4202.30769224;4171.53846140;4858.46153979;4266.66666674;3742.05128101;2171.53845716;-0.00000896;-0.00000896;3316.15384421;4139.10256390;3940.89743528;4300.00000014;4595.64102641;4301.79487194;4172.05128192;4205.12820506
4176.28205115;4170.12820499;4438.71794914;4241.92307693;3842.94871712;2172.82050845;-0.00000896;-0.00000896;3288.84615183;4137.56410236;3650.12820388;4301.53846168;4535.00000063;4301.28205142;4171.92307679;4172.30769217
4174.99999986;4169.61538448;4765.51282163;4241.15384616;3847.17948635;2198.97435467;-0.00000896;-0.00000896;3257.17948510;4135.89743569;3713.84615274;4300.12820527;4694.61538559;4303.58974373;4171.28205115;4172.30769217
4175.25641012;4169.35897422;4993.20512981;4240.76923077;3678.20512703;2173.97435460;-0.00000896;-0.00000896;3253.58974151;4102.94871767;3880.25640950;4302.69230784;4797.82051401;4303.97435912;4171.79487166;4172.30769217
4176.28205115;4168.33333320;4732.17948823;4239.48717949;3650.76922952;2200.25640595;-0.00000896;-0.00000896;3255.76922869;4076.53846119;3748.33333229;4302.69230784;4728.58974464;4303.71794886;4173.58974345;4172.30769217
4175.76923063;4168.46153833;4829.35897561;4237.56410257;3779.35897339;2201.79486749;-0.00000896;-0.00000896;3252.94871587;4073.71794837;3741.92307588;4302.56410271;4599.10256487;4302.05128219;4172.17948704;4172.30769217
4201.92307686;4169.61538448;4696.15384713;4237.56410257;3747.69230665;2202.30768800;-0.00000896;-0.00000896;3254.87179279;4071.41025607;3679.74358857;4301.92307707;4695.89743687;4301.28205142;4171.79487166;4205.12820506
4202.43589737;4171.15384602;4895.51282191;4235.25641026;3810.12820423;2202.69230339;-0.00000896;-0.00000896;3254.99999792;4041.28205087;3878.97435821;4300.12820527;4857.94871927;4301.79487194;4171.53846140;4205.12820506
4201.92307686;4173.58974345;4795.64102683;4235.89743590;3776.92307595;2174.23076486;-0.00000896;-0.00000896;3255.76922869;4044.61538420;3946.02564040;4300.25641040;4698.84615482;4301.28205142;4171.79487166;4205.12820506
4202.30769224;4174.74358961;4730.89743694;4235.38461539;3807.69230679;2199.35897005;229.99999153;-0.00000896;3257.05127997;4039.48717907;3907.43589674;4300.38461553;4632.05128289;4300.64102578;4172.05128192;4205.12820506
4202.43589737;4201.28205122;4861.79487312;4233.84615385;3776.41025544;2201.92307262;38.97435008;-0.00000896;3256.66666459;4043.97435856;3612.05128073;4301.41025655;4792.43589862;4302.43589758;4172.05128192;4205.12820506
4203.07692301;4203.84615378;4896.92307832;4208.97435891;3842.82051199;2200.12820082;-0.00000896;-0.00000896;3256.79486971;4071.41025607;3940.89743528;4301.79487194;4700.51282149;4301.15384630;4172.94871781;4205.12820506
4202.17948711;4204.23076917;4730.00000105;4207.82051275;3682.30769113;2200.38461108;-0.00000896;-0.00000896;3255.38461330;4071.79487145;3973.33333278;4300.89743604;4700.51282149;4301.15384630;4172.17948704;4205.12820506
4203.58974352;4205.38461532;4664.23077014;4208.20512814;3812.17948628;2174.10255973;229.99999153;-0.00000896;3256.28204920;4072.82051248;3878.84615309;4302.30769245;4497.82051338;4300.00000014;4172.30769217;4205.12820506
4205.64102558;4205.12820506;4563.71794942;4208.46153840;3746.15384512;2200.38461108;229.99999153;-0.00000896;3255.38461330;4076.02564068;3680.38461421;4302.17948732;4595.00000077;4301.28205142;4171.28205115;4205.12820506
4206.66666660;4205.89743583;4860.25641158;4208.71794865;3712.94871684;2199.99999570;229.99999153;-0.00000896;3256.66666459;4077.69230735;3748.97435794;4302.17948732;4766.28205240;4302.17948732;4171.66666653;4205.12820506
4208.07692301;4204.99999993;5021.66666834;4207.94871788;3839.99999917;2200.76922646;229.99999153;-0.00000896;3283.46153645;4105.12820485;3879.61538385;4299.74358989;4827.94871920;4300.51282066;4171.53846140;4205.12820506
4207.30769224;4204.99999993;4830.12820638;4208.71794865;3678.84615267;2200.64102134;229.99999153;-0.00000896;3284.48717748;4103.46153819;3941.53846092;4300.25641040;4628.20512904;4302.30769245;4172.17948704;4205.12820506
4207.05128199;4205.76923070;4667.82051373;4207.56410250;3880.38461462;2171.02563665;229.99999153;-0.00000896;3286.53845953;4105.76923050;3843.07692225;4301.79487194;4502.05128261;4301.28205142;4172.43589730;4205.12820506
4206.66666660;4204.35897429;4831.15384741;4208.58974352;3550.64102419;2173.20512383;229.99999153;-0.00000896;3289.48717748;4105.38461511;3748.46153742;4299.74358989;4630.00000084;4302.17948732;4173.20512807;4205.12820506
4206.41025634;4204.48717942;4660.51282142;4233.97435898;3842.43589661;2232.17948294;229.99999153;-0.00000896;3286.41025440;4103.97435870;3745.25640922;4301.53846168;4700.64102662;4302.43589758;4172.69230756;4205.12820506
4204.74358968;4204.87179481;4894.35897575;4234.74358975;3815.12820423;2232.05127782;229.99999153;-0.00000896;3287.43589542;4109.23076896;3944.99999938;4300.76923091;4762.94871906;4299.87179501;4173.84615371;4205.12820506
4205.38461532;4204.99999993;4730.89743694;4235.76923077;3874.35897360;2171.53845716;229.99999153;-0.00000896;3286.41025440;4105.51282024;3880.12820437;4301.79487194;4665.12820604;4301.53846168;4171.92307679;4205.12820506
4205.51282045;4204.48717942;4732.17948823;4236.02564103;3680.38461421;2171.79486742;229.99999153;-0.00000896;3284.35897235;4108.71794844;3680.64102446;4302.69230784;4662.43589834;4301.66666681;4171.92307679;4205.12820506
4204.61538455;4204.74358968;4931.02564249;4236.41025641;3840.51281968;2169.99999563;229.99999153;-0.00000896;3282.05128004;4105.12820485;3779.87179390;4301.02564117;4566.15384685;4302.05128219;4170.64102551;4205.12820506
4205.64102558;4202.69230763;4660.51282142;4235.64102564;3746.02563999;2173.33332896;229.99999153;-0.00000896;3282.17948517;4108.07692280;3874.74358898;4302.56410271;4660.64102655;4303.84615399;4171.53846140;4205.12820506
4205.89743583;4201.41025634;4825.76923202;4236.66666667;3940.64102502;2200.64102134;229.99999153;-0.00000896;3282.82051081;4105.76923050;3978.84615329;4302.43589758;4759.74359086;4301.79487194;4172.05128192;4205.12820506
4204.99999993;4201.53846147;4695.76923175;4236.15384616;3676.66666549;2200.89743159;229.99999153;-0.00000896;3256.02563894;4103.33333306;3809.23076833;4301.02564117;4565.00000070;4301.92307707;4172.17948704;4205.12820506
4204.10256404;4201.79487173;4697.94871893;4235.51282052;3743.33333229;2200.38461108;229.99999153;-0.00000896;3255.64102356;4076.79487145;4007.43589695;4302.94871809;4660.51282142;4301.79487194;4172.17948704;4205.12820506
4204.10256404;4202.69230763;4764.48718060;4234.10256411;3839.99999917;2201.53845723;229.99999153;-0.00000896;3282.17948517;4102.56410229;3709.10256299;4300.00000014;4695.64102662;4303.46153860;4172.30769217;4205.12820506
4203.58974352;4203.33333327;4891.41025780;4234.74358975;3875.25640950;2172.94871357;229.99999153;-0.00000896;3256.53845946;4104.10256383;3844.99999917;4300.76923091;4666.41025732;4300.64102578;4172.43589730;4205.12820506
4204.48717942;4202.56410250;4534.74359037;4235.12820513;3745.12820409;2174.23076486;229.99999153;-0.00000896;3255.51281843;4077.17948684;4037.17948677;4301.28205142;4569.48718019;4304.48717963;4172.17948704;4205.12820506
4204.35897429;4202.43589737;4629.87179571;4235.00000000;3873.07692232;2173.71794434;229.99999153;-0.00000896;3256.92307484;4103.20512793;3908.84615316;4299.48717963;4501.79487235;4302.30769245;4171.41025628;4205.12820506
4205.64102558;4203.97435891;4598.20512897;4235.64102564;3650.38461414;2173.20512383;229.99999153;-0.00000896;3256.53845946;4103.33333306;3614.99999868;4300.00000014;4563.97435967;4302.17948732;4172.05128192;4205.12820506
4206.66666660;4202.56410250;4832.30769356;4208.97435891;3809.35897346;2171.66666229;229.99999153;-0.00000896;3282.17948517;4104.99999973;3876.92307616;4301.66666681;4763.97436009;4302.30769245;4171.92307679;4205.12820506
4206.15384609;4203.97435891;4993.33333494;4235.51282052;3743.84615281;2199.23076493;229.99999153;-0.00000896;3284.48717748;4075.38461504;3942.94871733;4301.53846168;4831.92307818;4300.00000014;4172.05128192;4205.12820506
4206.28205122;4204.35897429;4762.69230881;4233.97435898;3844.61538379;2201.92307262;229.99999153;-0.00000896;3282.69230568;4102.56410229;3846.92307609;4302.30769245;4535.89743653;4300.25641040;4172.05128192;4205.12820506
4207.05128199;4204.35897429;4698.71794969;4233.84615385;3614.35897304;2200.64102134;229.99999153;-0.00000896;3283.07692107;4075.76923043;3647.05128080;4300.25641040;4563.33333403;4301.53846168;4174.23076910;4205.12820506
4206.66666660;4205.12820506;4792.56410375;4208.58974352;3716.66666556;2172.56409819;229.99999153;-0.00000896;3284.10256209;4077.30769196;3876.28205052;4300.89743604;4632.43589827;4302.82051296;4172.05128192;4205.12820506
4206.66666660;4204.61538455;4829.74359100;4208.46153840;3843.58974276;2173.58973922;229.99999153;-0.00000896;3285.64102363;4104.74358947;3743.07692204;4299.61538476;4693.58974457;4301.92307707;4172.43589730;4205.12820506
4206.28205122;4204.99999993;4700.38461636;4207.94871788;3879.48717873;2173.46153409;229.99999153;-0.00000896;3286.28204927;4105.64102537;3676.15384498;4301.15384630;4599.87179564;4300.64102578;4171.79487166;4205.12820506
4207.05128199;4204.99999993;4764.23077035;4234.23076923;3648.84615260;2173.20512383;229.99999153;-0.00000896;3287.17948517;4105.25640998;3748.58974255;4303.84615399;4600.25641102;4305.51282066;4171.66666653;4205.12820506
4206.92307686;4204.87179481;4732.17948823;4209.10256404;3647.30769106;2200.12820082;229.99999153;-0.00000896;3287.17948517;4107.82051255;3812.43589654;4300.64102578;4665.76923168;4302.05128219;4171.92307679;4205.12820506
4206.92307686;4205.51282045;5127.94871983;4233.84615385;3811.79487090;2170.25640588;229.99999153;-0.00000896;3286.92307491;4109.61538434;3741.66666563;4301.15384630;4730.64102669;4300.38461553;4172.43589730;4205.12820506
4207.30769224;4203.84615378;4630.89743674;4234.61538462;3814.74358884;2172.82050845;229.99999153;-0.00000896;3287.56410055;4107.30769203;3913.20512751;4274.61538469;4661.28205219;4301.53846168;4172.43589730;4205.12820506
4207.17948711;4203.46153840;4728.97436002;4208.58974352;3873.71794796;2199.74358544;229.99999153;-0.00000896;3288.07692107;4110.64102537;3905.76923008;4301.79487194;4529.35897499;4301.02564117;4172.30769217;4205.12820506
4206.66666660;4203.33333327;4699.87179585;4234.10256411;3876.53846078;2172.43589306;-0.00000896;-0.00000896;3289.10256209;4107.94871767;3844.35897353;4302.43589758;4799.23077042;4301.28205142;4170.76923063;4205.12820506
4206.53846147;4203.46153840;4825.00000125;4234.48717949;3583.20512682;2173.84614947;67.69229887;-0.00000896;3289.87179286;4109.35897408;3774.61538365;4301.92307707;4830.64102690;4303.33333348;4172.43589730;4205.12820506
4206.15384609;4203.33333327;4700.00000098;4234.87179488;3743.71794768;2172.30768793;229.99999153;-0.00000896;3317.30769037;4107.17948691;3714.35897325;4301.66666681;4635.12820597;4302.82051296;4173.33333320;4205.12820506
4204.48717942;4203.58974352;5060.64102738;4235.64102564;3780.89743493;2174.23076486;67.69229887;-0.00000896;3315.12820319;4106.41025614;3875.51281975;4273.71794879;4633.46153930;4302.05128219;4172.69230756;4205.12820506
4203.07692301;4201.79487173;4697.30769328;4236.02564103;3845.25640943;2173.58973922;-0.00000896;-0.00000896;3289.10256209;4106.02564075;3880.12820437;4301.66666681;4566.02564172;4303.58974373;4173.20512807;4205.12820506
4202.30769224;4201.41025634;4829.35897561;4234.10256411;3747.17948614;2173.20512383;-0.00000896;-0.00000896;3288.33333132;4105.76923050;3878.46153770;4302.43589758;4666.79487270;4301.41025655;4172.69230756;4205.12820506
4201.66666660;4201.15384609;4731.15384720;4235.12820513;3650.64102439;2171.53845716;-0.00000896;-0.00000896;3285.76922876;4103.33333306;3647.82051157;4303.07692322;4600.38461615;4303.07692322;4171.53846140;4205.12820506
4201.41025634;4201.28205122;4830.89743715;4234.35897436;3874.35897360;2174.23076486;-0.00000896;-0.00000896;3284.35897235;4105.51282024;4004.61538413;4300.89743604;4825.64102690;4302.43589758;4171.92307679;4205.12820506
4202.05128199;4202.17948711;4799.48718067;4234.74358975;3815.12820423;2173.20512383;-0.00000896;-0.00000896;3283.58974158;4102.69230742;3841.79487096;4301.15384630;4534.74359037;4301.41025655;4170.38461525;4205.12820506
4202.17948711;4201.92307686;4759.23077035;4235.38461539;3913.71794803;2173.84614947;-0.00000896;-0.00000896;3285.76922876;4104.74358947;3847.69230686;4302.30769245;4630.38461622;4302.30769245;4172.69230756;4205.12820506
4203.07692301;4202.17948711;4733.46153951;4234.48717949;3644.74358850;2170.89743152;-0.00000896;-0.00000896;3285.76922876;4106.15384588;3847.17948635;4302.56410271;4534.74359037;4300.76923091;4172.05128192;4205.12820506
4202.43589737;4202.82051275;4828.97436023;4236.02564103;3716.41025530;2169.35896999;-0.00000896;-0.00000896;3287.05128004;4106.28205101;3877.82051206;4301.41025655;4700.64102662;4303.71794886;4172.43589730;4205.12820506
4203.84615378;4202.56410250;4498.58974415;4234.23076923;3677.30769113;2202.05127775;-0.00000896;-0.00000896;3286.53845953;4102.69230742;3779.23076826;4300.12820527;4568.20512890;4302.30769245;4172.17948704;4205.12820506
4204.23076917;4202.30769224;4897.56410396;4233.97435898;3813.07692218;2206.41025211;-0.00000896;-0.00000896;3283.58974158;4103.84615357;3715.25640915;4302.82051296;4895.89743729;4302.43589758;4171.79487166;4205.12820506
4204.74358968;4203.97435891;4631.53846238;4208.84615378;3776.02564006;2199.35897005;-0.00000896;-0.00000896;3286.79486978;4103.58974332;3908.20512751;4303.46153860;4601.79487256;4301.79487194;4172.05128192;4205.12820506
4205.89743583;4205.38461532;4665.51282142;4234.10256411;3453.84615218;2169.87179050;-0.00000896;-0.00000896;3288.71794671;4104.61538434;3709.48717838;4301.53846168;4660.64102655;4301.53846168;4172.43589730;4205.12820506
4205.12820506;4205.64102558;4896.92307832;4233.97435898;3873.20512744;2169.10255973;-0.00000896;-0.00000896;3289.74358773;4105.89743562;3912.82051213;4302.05128219;4727.82051387;4302.82051296;4172.17948704;4205.12820506
4205.64102558;4203.58974352;4761.66666778;4235.76923077;3749.23076819;2172.94871357;-0.00000896;-0.00000896;3286.79486978;4107.05128178;3912.17948649;4299.87179501;4728.97436002;4303.07692322;4171.53846140;4205.12820506
4205.51282045;4204.74358968;4762.82051394;4235.51282052;3879.23076847;2200.51281621;-0.00000896;-0.00000896;3257.17948510;4106.92307665;3880.64102488;4302.82051296;4564.10256480;4305.51282066;4172.43589730;4205.12820506
4206.79487173;4204.74358968;4598.07692385;4237.05128206;3844.61538379;2200.89743159;-0.00000896;-0.00000896;3283.46153645;4105.38461511;3713.58974248;4299.48717963;4535.12820576;4301.92307707;4172.56410243;4205.12820506
4207.17948711;4204.35897429;4763.97436009;4237.43589744;3645.51281927;2201.41025211;-0.00000896;-0.00000896;3283.71794671;4107.69230742;3613.20512689;4301.53846168;4633.33333417;4302.43589758;4172.30769217;4205.12820506
4206.53846147;4204.74358968;4726.53846258;4235.64102564;3650.64102439;2172.43589306;-0.00000896;-0.00000896;3283.58974158;4105.12820485;3744.35897332;4303.20512835;4665.25641116;4303.07692322;4173.07692294;4205.12820506
4208.33333327;4203.97435891;5127.94871983;4236.79487180;3746.79487076;2169.10255973;-0.00000896;-0.00000896;3283.97435696;4108.84615357;3939.35897374;4301.79487194;4828.46153972;4302.17948732;4172.05128192;4205.12820506
4208.33333327;4203.33333327;4729.35897541;4235.38461539;3748.97435794;2171.02563665;-0.00000896;-0.00000896;3284.99999799;4108.20512793;3972.94871740;4301.79487194;4660.64102655;4301.53846168;4172.17948704;4205.12820506
4208.33333327;4203.71794865;4661.79487270;4237.17948718;3808.07692218;2170.89743152;-0.00000896;-0.00000896;3285.25640825;4108.71794844;4006.41025593;4300.00000014;4562.56410326;4303.46153860;4174.23076910;4205.12820506
4207.30769224;4203.20512814;4634.35897520;4237.17948718;3749.61538358;2173.20512383;-0.00000896;-0.00000896;3286.92307491;4109.48717921;3579.48717810;4301.79487194;4565.64102634;4303.20512835;4171.79487166;4205.12820506
4205.76923070;4203.33333327;4858.20512953;4236.53846154;3776.28205031;2171.79486742;-0.00000896;-0.00000896;3286.53845953;4108.97435870;3807.94871705;4302.82051296;4766.53846265;4301.92307707;4173.33333320;4205.12820506
4206.15384609;4202.17948711;4763.84615496;4235.76923077;3743.33333229;2172.43589306;-0.00000896;-0.00000896;3284.10256209;4109.87179460;3877.69230693;4301.41025655;4635.76923161;4302.30769245;4171.92307679;4205.12820506
4204.23076917;4201.92307686;4825.38461664;4236.66666667;3709.10256299;2199.74358544;229.99999153;-0.00000896;3282.43589542;4107.17948691;3746.41025537;4303.07692322;4695.89743687;4299.87179501;4172.43589730;4205.12820506
4204.61538455;4203.97435891;4794.87179606;4234.23076923;3876.28205052;2200.38461108;229.99999153;-0.00000896;3282.17948517;4110.64102537;3712.05128094;4301.53846168;4595.00000077;4304.23076937;4172.05128192;4205.12820506
4205.51282045;4204.23076917;4859.74359107;4234.87179488;3646.15384491;2170.76922640;229.99999153;-0.00000896;3282.56410055;4109.35897408;3710.76922966;4304.10256425;4732.82051387;4301.79487194;4174.48717935;4205.12820506
4204.87179481;4203.33333327;4890.38461678;4233.97435898;3872.94871719;2173.07691870;229.99999153;-0.00000896;3285.12820312;4108.33333306;3774.48717852;4273.71794879;4829.74359100;4301.92307707;4172.56410243;4205.12820506
4204.61538455;4202.69230763;4893.20512960;4207.82051275;3780.89743493;2200.25640595;-0.00000896;-0.00000896;3283.84615183;4104.10256383;4104.35897408;4302.43589758;4732.69230874;4303.71794886;4172.17948704;4205.12820506
4204.48717942;4203.58974352;4729.87179592;4207.94871788;3841.53846071;2199.35897005;-0.00000896;-0.00000896;3285.12820312;4102.56410229;3809.99999910;4300.64102578;4570.00000070;4302.17948732;4172.43589730;4205.12820506
4204.48717942;4203.71794865;4694.61538559;4207.56410250;3680.64102446;2173.58973922;229.99999153;-0.00000896;3285.51281850;4103.20512793;3873.84615309;4300.76923091;4695.89743687;4300.76923091;4173.33333320;4205.12820506
4205.51282045;4204.48717942;4861.66666799;4208.33333327;3873.71794796;2172.05127768;-0.00000896;-0.00000896;3285.38461337;4106.92307665;3842.94871712;4273.33333341;4602.43589820;4302.82051296;4174.48717935;4205.12820506
4204.23076917;4204.35897429;4827.30769356;4207.82051275;3775.76922980;2171.92307255;229.99999153;-0.00000896;3286.53845953;4104.23076896;3910.25640957;4274.35897443;4696.66666764;4301.66666681;4172.30769217;4205.12820506
4204.48717942;4203.97435891;4765.12820624;4207.69230763;3909.87179418;2170.12820075;-0.00000896;-0.00000896;3284.99999799;4106.53846126;3976.41025586;4273.97435905;4632.30769315;4302.43589758;4173.20512807;4205.12820506
4204.87179481;4203.84615378;4732.17948823;4207.56410250;3649.87179362;2171.66666229;229.99999153;-0.00000896;3287.05128004;4107.82051255;3710.89743479;4300.12820527;4733.97436002;4303.07692322;4172.17948704;4205.12820506
4204.99999993;4203.46153840;4895.64102703;4206.79487173;3748.20512717;2173.33332896;-0.00000896;-0.00000896;3286.41025440;4136.53846133;4011.92307644;4300.64102578;4924.61538608;4300.64102578;4172.82051269;4205.12820506
4206.28205122;4203.46153840;4562.94871865;4207.30769224;3682.56410139;2171.79486742;229.99999153;-0.00000896;3288.97435696;4106.15384588;3815.25640936;4272.94871802;4632.56410340;4301.66666681;4172.05128192;4205.12820506
4206.02564096;4203.33333327;4924.35897582;4208.58974352;3811.02564013;2173.84614947;-0.00000896;-0.00000896;3289.23076722;4105.76923050;3777.69230672;4301.66666681;4602.69230846;4301.28205142;4172.05128192;4205.12820506
4205.51282045;4203.97435891;4794.61538580;4208.20512814;3913.46153777;2172.56409819;229.99999153;-0.00000896;3314.87179293;4106.41025614;3778.20512724;4302.05128219;4668.58974450;4300.38461553;4172.69230756;4205.12820506
4205.12820506;4203.97435891;4796.02564221;4208.46153840;3615.51281920;2173.20512383;-0.00000896;-0.00000896;3316.02563908;4106.41025614;3845.38461455;4300.64102578;4668.33333424;4303.46153860;4172.30769217;4205.12820506
4205.38461532;4203.84615378;4825.51282177;4233.84615385;3747.82051178;2173.20512383;229.99999153;-0.00000896;3315.12820319;4105.89743562;3681.53846036;4303.20512835;4733.33333438;4302.05128219;4172.82051269;4205.12820506
4205.64102558;4204.23076917;4890.64102703;4234.61538462;3746.15384512;2199.87179057;-0.00000896;-0.00000896;3315.89743396;4107.43589716;3971.79487124;4274.48717956;4792.94871913;4300.25641040;4172.56410243;4205.12820506
4205.64102558;4204.74358968;4666.15384706;4235.64102564;3741.79487076;2172.17948281;229.99999153;-0.00000896;3315.64102370;4106.15384588;3876.53846078;4299.74358989;4602.43589820;4302.69230784;4172.17948704;4205.12820506
4204.87179481;4204.99999993;4730.38461643;4235.51282052;3610.76922945;2169.74358537;-0.00000896;-0.00000896;3314.99999806;4107.82051255;3809.10256320;4300.64102578;4694.35897534;4302.69230784;4172.43589730;4205.12820506
4205.25641019;4204.35897429;4791.92307811;4235.25641026;3782.05128108;2171.02563665;229.99999153;-0.00000896;3289.48717748;4110.51282024;3845.89743507;4300.25641040;4565.25641096;4303.20512835;4172.17948704;4205.12820506
4204.61538455;4204.87179481;4863.58974491;4237.43589744;3743.46153742;2172.82050845;-0.00000896;-0.00000896;3289.35897235;4109.35897408;3938.97435835;4301.66666681;4728.84615489;4300.38461553;4172.69230756;4205.12820506
4204.61538455;4203.97435891;4861.79487312;4237.05128206;3910.51281982;2170.89743152;229.99999153;-0.00000896;3288.58974158;4108.46153819;3747.82051178;4274.23076930;4857.56410389;4301.66666681;4172.43589730;4205.12820506
4203.84615378;4204.48717942;4797.82051401;4236.28205129;3777.05128108;2171.28204691;-0.00000896;-0.00000896;3289.99999799;4109.87179460;3846.02564020;4300.51282066;4696.41025739;4301.66666681;4172.05128192;4205.12820506
4202.94871788;4203.33333327;4629.87179571;4235.64102564;3648.97435773;2173.33332896;229.99999153;-0.00000896;3286.66666466;4108.07692280;3974.48717894;4301.02564117;4598.84615461;4301.79487194;4173.71794858;4205.12820506
4202.69230763;4204.48717942;4694.87179585;4235.25641026;3646.41025516;2174.23076486;-0.00000896;-0.00000896;3285.76922876;4107.43589716;3743.97435794;4301.15384630;4662.30769321;4302.17948732;4172.56410243;4205.12820506
4202.69230763;4204.87179481;4825.64102690;4234.23076923;3873.71794796;2172.43589306;229.99999153;-0.00000896;3287.56410055;4106.41025614;3745.25640922;4300.89743604;4598.71794949;4301.92307707;4173.58974345;4205.12820506
4202.56410250;4204.23076917;4923.58974505;4235.00000000;3880.51281975;2168.07691870;-0.00000896;-0.00000896;3286.92307491;4136.92307672;3742.43589640;4301.53846168;4635.38461622;4302.17948732;4172.05128192;4205.12820506
4202.82051275;4203.58974352;4536.15384678;4235.12820513;3808.84615295;2169.61538024;229.99999153;-0.00000896;3285.89743389;4108.71794844;3942.69230707;4273.58974366;4536.92307755;4302.05128219;4171.92307679;4205.12820506
4203.20512814;4203.58974352;4666.92307783;4234.48717949;3781.53846057;2170.51281614;-0.00000896;-0.00000896;3282.17948517;4135.64102544;3748.84615281;4299.48717963;4529.23076986;4300.76923091;4172.30769217;4205.12820506
4203.71794865;4204.23076917;4766.15384727;4208.97435891;3614.10256279;2173.33332896;229.99999153;-0.00000896;3282.94871594;4137.56410236;3613.20512689;4299.48717963;4567.43589813;4302.30769245;4172.69230756;4205.12820506
4204.99999993;4204.48717942;4896.92307832;4234.23076923;3812.43589654;2171.66666229;-0.00000896;-0.00000896;3283.97435696;4108.33333306;3778.46153749;4300.64102578;4693.97435995;4301.28205142;4173.71794858;4205.12820506
4205.51282045;4203.97435891;4959.23077076;4234.10256411;3715.64102453;2200.64102134;229.99999153;-0.00000896;3284.74358773;4106.53846126;3847.17948635;4299.48717963;4793.33333452;4301.02564117;4172.82051269;4205.12820506
4205.12820506;4203.46153840;4759.87179599;4208.33333327;3880.76923001;2173.71794434;-0.00000896;-0.00000896;3287.17948517;4107.69230742;3746.28205024;4302.05128219;4635.12820597;4301.53846168;4172.56410243;4205.12820506
4205.38461532;4204.61538455;4762.05128317;4206.79487173;3775.12820416;2172.43589306;-0.00000896;-0.00000896;3287.94871594;4108.07692280;3905.89743521;4300.64102578;4634.87179571;4302.82051296;4172.43589730;4205.12820506
4204.61538455;4204.35897429;4826.28205254;4234.10256411;3781.15384518;2170.89743152;-0.00000896;-0.00000896;3287.94871594;4109.23076896;3614.35897304;4301.02564117;4696.02564200;4301.79487194;4172.56410243;4205.12820506
4204.10256404;4203.58974352;4864.23077055;4208.33333327;3807.56410166;2173.46153409;229.99999153;-0.00000896;3289.74358773;4109.61538434;3812.56410166;4303.20512835;4628.84615468;4302.17948732;4172.82051269;4205.12820506
4202.56410250;4203.84615378;4668.20512911;4208.97435891;3742.94871691;2173.71794434;229.99999153;-0.00000896;3288.07692107;4110.38461511;3909.99999931;4302.69230784;4664.10256501;4301.92307707;4173.84615371;4205.12820506
4204.23076917;4204.48717942;4760.12820624;4208.33333327;3616.02563971;2171.02563665;229.99999153;-0.00000896;3289.87179286;4109.61538434;3778.84615288;4299.61538476;4668.07692398;4300.00000014;4172.30769217;4205.12820506
4201.92307686;4203.97435891;4799.23077042;4208.84615378;3775.89743493;2172.82050845;229.99999153;-0.00000896;3289.61538260;4107.17948691;3847.43589661;4300.76923091;4564.87179557;4302.69230784;4172.82051269;4205.12820506
4202.82051275;4204.23076917;4733.33333438;4209.10256404;3715.51281940;2202.56409826;-0.00000896;-0.00000896;3285.89743389;4136.28205108;3909.10256341;4301.92307707;4698.71794969;4301.41025655;4172.94871781;4205.12820506
4203.07692301;4204.87179481;4925.89743736;4207.17948711;3906.66666598;2201.79486749;-0.00000896;-0.00000896;3284.61538260;4140.12820492;3780.25640929;4300.00000014;4892.69230909;4300.38461553;4175.38461525;4205.12820506
4203.58974352;4205.12820506;4829.61538587;4207.69230763;3781.92307595;2169.23076486;-0.00000896;-0.00000896;3284.99999799;4139.61538441;3846.79487096;4304.10256425;4759.87179599;4302.94871809;4173.71794858;4205.12820506
4205.51282045;4205.38461532;4760.00000112;4206.92307686;3649.99999875;2170.25640588;-0.00000896;-0.00000896;3288.46153645;4136.41025621;3940.38461476;4301.15384630;4630.00000084;4302.05128219;4173.07692294;4205.12820506
4204.87179481;4204.48717942;4890.76923216;4207.17948711;3807.69230679;2172.30768793;-0.00000896;-0.00000896;3286.53845953;4138.46153826;3878.97435821;4303.07692322;4694.87179585;4302.30769245;4173.84615371;4205.12820506
4204.35897429;4204.48717942;4436.92307734;4206.53846147;3778.20512724;2172.30768793;-0.00000896;-0.00000896;3287.30769030;4139.10256390;3714.23076812;4302.94871809;4503.84615441;4301.41025655;4172.30769217;4205.12820506
4205.51282045;4204.99999993;4926.02564249;4205.89743583;3938.71794810;2170.64102127;-0.00000896;-0.00000896;3288.71794671;4138.71794851;3712.17948607;4303.20512835;4665.25641116;4303.07692322;4172.69230756;4205.12820506
4204.87179481;4204.48717942;4824.74359100;4205.76923070;3781.53846057;2169.10255973;-0.00000896;-0.00000896;3315.89743396;4138.20512800;3847.43589661;4301.41025655;4733.97436002;4303.07692322;4172.30769217;4205.12820506
4204.35897429;4204.99999993;4761.66666778;4207.43589737;3775.25640929;2169.10255973;-0.00000896;-0.00000896;3314.87179293;4136.92307672;3842.43589661;4303.20512835;4601.79487256;4302.05128219;4172.69230756;4205.12820506
4204.74358968;4202.94871788;4760.12820624;4206.53846147;3678.71794754;2169.10255973;-0.00000896;-0.00000896;3316.15384421;4136.92307672;3611.15384484;4300.12820527;4437.82051324;4300.89743604;4172.56410243;4205.12820506
4203.97435891;4203.20512814;4698.07692405;4205.12820506;3743.84615281;2168.33332896;-0.00000896;-0.00000896;3317.43589549;4136.15384595;3748.71794768;4302.43589758;4726.41025746;4301.79487194;4172.82051269;4205.12820506
4203.71794865;4202.56410250;4928.46153992;4206.41025634;3741.66666563;2168.84614947;-0.00000896;-0.00000896;3317.82051088;4137.17948697;3781.92307595;4303.07692322;4792.69230888;4301.66666681;4172.94871781;4205.12820506
4205.51282045;4202.69230763;4694.74359072;4205.25641019;3880.12820437;2167.17948281;-0.00000896;-0.00000896;3318.46153652;4142.17948697;3715.25640915;4301.53846168;4598.07692385;4301.53846168;4173.07692294;4205.12820506
4204.23076917;4202.05128199;4731.66666771;4207.82051275;3677.94871677;2167.94871357;-0.00000896;-0.00000896;3320.38461344;4135.38461518;3845.51281968;4300.51282066;4698.71794969;4300.12820527;4172.56410243;4205.12820506
4204.10256404;4202.17948711;4831.28205254;4208.46153840;3743.97435794;2172.30768793;-0.00000896;-0.00000896;3320.51281857;4110.25640998;3714.74358864;4299.48717963;4759.35897547;4301.02564117;4173.33333320;4205.12820506
4203.97435891;4203.33333327;4961.02564256;4207.82051275;3840.76922994;2172.17948281;-0.00000896;-0.00000896;3322.30769037;4109.10256383;4039.10256369;4303.58974373;4890.64102703;4300.64102578;4173.20512807;4205.12820506
4202.94871788;4203.20512814;4632.82051366;4207.82051275;3742.56410153;2172.56409819;-0.00000896;-0.00000896;3321.79486985;4141.15384595;3809.61538372;4302.69230784;4564.23076993;4301.66666681;4173.20512807;4205.12820506
4203.58974352;4204.10256404;4602.43589820;4234.35897436;3847.05128122;2172.17948281;-0.00000896;-0.00000896;3322.05128011;4109.10256383;4008.20512772;4300.89743604;4536.53846217;4302.05128219;4172.82051269;4205.12820506
4203.33333327;4203.97435891;4733.58974464;4209.10256404;3778.20512724;2171.53845716;-0.00000896;-0.00000896;3322.69230575;4136.28205108;3578.33333195;4303.71794886;4536.41025704;4300.51282066;4172.56410243;4205.12820506
4202.94871788;4203.71794865;4795.76923195;4235.51282052;3743.33333229;2169.99999563;-0.00000896;-0.00000896;3320.89743396;4135.64102544;3650.89743465;4301.02564117;4701.02564200;4300.12820527;4172.43589730;4205.12820506
4202.69230763;4203.84615378;5028.71795039;4235.76923077;3745.51281947;2172.17948281;-0.00000896;-0.00000896;3319.99999806;4109.87179460;3875.89743514;4303.46153860;4863.20512953;4300.38461553;4173.20512807;4205.12820506
4202.82051275;4204.35897429;4764.48718060;4236.28205129;3742.82051178;2173.33332896;-0.00000896;-0.00000896;3316.53845960;4136.02564082;3876.15384539;4303.84615399;4665.00000091;4301.41025655;4172.56410243;4205.12820506
4203.97435891;4204.87179481;4760.89743701;4236.15384616;3906.41025572;2174.23076486;-0.00000896;-0.00000896;3317.17948524;4137.30769210;3808.07692218;4300.76923091;4599.23077000;4301.41025655;4173.07692294;4205.12820506
4203.97435891;4203.71794865;4797.94871913;4236.41025641;3648.71794747;2168.07691870;-0.00000896;-0.00000896;3316.53845960;4141.66666646;3649.87179362;4301.41025655;4730.25641130;4302.17948732;4173.97435884;4205.12820506
4204.74358968;4202.43589737;4924.74359121;4236.28205129;3807.82051192;2170.89743152;229.99999153;-0.00000896;3315.12820319;4137.94871774;3745.64102460;4302.69230784;4726.28205233;4301.15384630;4172.56410243;4205.12820506
4205.38461532;4204.99999993;4635.25641109;4235.64102564;3778.46153749;2174.23076486;71.66665785;-0.00000896;3315.12820319;4139.48717928;3971.79487124;4304.48717963;4632.30769315;4302.05128219;4172.82051269;4205.12820506
4205.12820506;4204.10256404;5022.82051449;4234.87179488;3648.84615260;2168.46153409;-0.00000896;-0.00000896;3317.43589549;4138.84615364;3781.66666570;4303.46153860;4796.02564221;4302.56410271;4170.51282038;4205.12820506
4205.38461532;4202.94871788;4761.15384727;4235.12820513;3650.76922952;2140.25640581;0.51281155;-0.00000896;3319.10256216;4139.61538441;3781.92307595;4300.51282066;4733.84615489;4300.51282066;4172.56410243;4205.12820506
4204.87179481;4202.69230763;4798.46153965;4235.89743590;3842.56410173;2140.89743145;229.99999153;-0.00000896;3320.51281857;4138.71794851;3811.79487090;4300.38461553;4567.17948788;4301.02564117;4173.46153833;4205.12820506
4203.97435891;4203.20512814;4861.66666799;4235.51282052;3842.30769148;2167.30768793;229.99999153;-0.00000896;3315.38461344;4138.07692287;3614.87179356;4301.53846168;4766.41025753;4302.05128219;4172.94871781;4205.12820506
4204.35897429;4202.94871788;4793.71794990;4237.56410257;3878.97435821;2167.82050845;229.99999153;-0.00000896;3316.92307498;4136.41025621;3944.10256348;4300.64102578;4731.53846258;4300.38461553;4173.07692294;4205.12820506
4203.46153840;4202.43589737;4761.41025753;4236.92307693;3709.61538351;2169.99999563;229.99999153;-0.00000896;3316.15384421;4136.41025621;3941.53846092;4302.43589758;4629.48718032;4302.17948732;4173.07692294;4205.12820506
4203.07692301;4203.33333327;4824.61538587;4238.46153847;3812.56410166;2169.10255973;229.99999153;-0.00000896;3316.02563908;4137.43589723;3971.53846099;4300.12820527;4663.07692398;4301.28205142;4172.56410243;4205.12820506
4203.07692301;4204.10256404;4858.58974491;4237.69230770;3874.10256334;2172.56409819;229.99999153;-0.00000896;3289.10256209;4137.43589723;3581.53846015;4300.64102578;4728.58974464;4301.92307707;4173.33333320;4205.12820506
4203.71794865;4204.87179481;4793.58974477;4235.38461539;3944.87179425;2170.51281614;229.99999153;-0.00000896;3285.76922876;4104.87179460;3811.92307602;4301.53846168;4570.12820583;4302.30769245;4172.43589730;4205.12820506
4204.23076917;4204.74358968;4761.02564214;4235.12820513;3741.92307588;2171.28204691;229.99999153;-0.00000896;3288.84615183;4140.51282031;3847.69230686;4299.87179501;4627.69230853;4301.15384630;4172.94871781;4205.12820506
4204.61538455;4205.25641019;4794.61538580;4234.23076923;3683.84615267;2169.10255973;229.99999153;-0.00000896;3289.10256209;4170.12820499;3807.43589654;4301.41025655;4668.20512911;4302.56410271;4173.46153833;4205.12820506
4204.35897429;4204.23076917;4924.48718095;4234.10256411;3939.10256348;2169.99999563;229.99999153;-0.00000896;3288.20512619;4140.38461518;3676.41025523;4300.00000014;4634.74359058;4300.64102578;4175.76923063;4205.12820506
4206.02564096;4203.20512814;4729.23077028;4234.74358975;3879.48717873;2171.41025204;229.99999153;-0.00000896;3288.97435696;4139.74358954;3646.41025516;4303.20512835;4697.05128303;4300.89743604;4172.82051269;4205.12820506
4206.41025634;4201.92307686;4891.41025780;4235.00000000;3811.66666577;2172.17948281;229.99999153;-0.00000896;3316.79486985;4140.25641005;3908.58974290;4301.15384630;4663.33333424;4300.64102578;4172.17948704;4205.12820506
4206.28205122;4202.30769224;4923.46153992;4234.74358975;3843.71794789;2199.35897005;229.99999153;-0.00000896;3316.79486985;4140.64102544;3842.05128122;4301.15384630;4761.28205240;4300.64102578;4172.82051269;4205.12820506
4206.15384609;4202.43589737;4698.46153944;4235.89743590;3911.28205059;2201.15384185;229.99999153;-0.00000896;3317.94871601;4140.89743569;3810.25640936;4300.51282066;4534.23076986;4301.41025655;4171.79487166;4205.12820506
4206.66666660;4203.07692301;4827.05128331;4234.74358975;3877.43589668;2198.97435467;229.99999153;-0.00000896;3318.46153652;4141.41025621;3744.23076819;4273.84615392;4666.66666757;4300.00000014;4173.07692294;4205.12820506
4205.51282045;4202.17948711;4602.30769308;4234.74358975;4037.05128164;2169.10255973;229.99999153;-0.00000896;3319.99999806;4141.41025621;3683.71794754;4303.20512835;4469.87179536;4300.25641040;4172.69230756;4205.12820506
4204.48717942;4201.41025634;4923.71795018;4234.87179488;4041.02564061;2171.28204691;229.99999153;-0.00000896;3320.64102370;4142.17948697;3877.05128129;4300.89743604;5092.82051463;4300.89743604;4173.07692294;4205.12820506
4203.46153840;4201.53846147;4761.02564214;4234.61538462;4040.25640984;2173.46153409;229.99999153;-0.00000896;3318.20512626;4139.10256390;3907.94871726;4301.92307707;4663.71794963;4300.89743604;4172.94871781;4205.12820506
4204.10256404;4203.07692301;4730.38461643;4235.64102564;3809.10256320;2199.10255980;229.99999153;-0.00000896;3315.25640831;4136.41025621;3846.66666584;4301.02564117;4565.12820583;4273.71794879;4172.94871781;4205.12820506
4204.61538455;4203.46153840;4728.20512925;4235.00000000;3977.56410201;2166.53845716;229.99999153;-0.00000896;3316.02563908;4137.56410236;3875.89743514;4303.07692322;4663.07692398;4299.87179501;4174.35897422;4205.12820506
4204.23076917;4202.94871788;4635.25641109;4235.51282052;3972.17948663;2168.46153409;229.99999153;-0.00000896;3316.79486985;4139.61538441;3777.56410160;4301.02564117;4664.61538552;4300.38461553;4172.94871781;4205.12820506
4203.97435891;4202.17948711;4698.71794969;4235.76923077;3807.69230679;2168.46153409;229.99999153;-0.00000896;3315.38461344;4142.82051262;3778.71794775;4302.05128219;4662.94871886;4302.56410271;4172.69230756;4205.12820506
4203.71794865;4201.92307686;5089.74359155;4234.10256411;4008.07692259;2169.10255973;70.25640144;-0.00000896;3289.10256209;4140.38461518;3848.07692225;4301.28205142;4700.25641123;4300.38461553;4172.43589730;4205.12820506
4205.38461532;4202.05128199;4597.69230846;4234.10256411;4040.12820472;2172.56409819;229.99999153;-0.00000896;3315.12820319;4140.76923056;3944.48717887;4302.17948732;4666.15384706;4299.61538476;4172.82051269;4205.12820506
4203.58974352;4202.56410250;4865.00000132;4234.35897436;3877.69230693;2169.10255973;229.99999153;-0.00000896;3319.48717755;4141.41025621;3844.10256327;4303.07692322;4667.56410347;4301.02564117;4172.30769217;4205.12820506
4203.20512814;4203.33333327;4760.76923188;4234.10256411;3779.48717852;2170.89743152;229.99999153;-0.00000896;3320.38461344;4139.99999980;3775.25640929;4302.05128219;4595.89743667;4300.00000014;4172.43589730;4205.12820506
4202.43589737;4202.94871788;4928.84615531;4234.35897436;4004.74358926;2172.43589306;229.99999153;-0.00000896;3320.12820319;4138.84615364;3749.35897332;4302.82051296;4700.12820610;4300.25641040;4172.69230756;4205.12820506
4204.10256404;4205.64102558;4503.20512876;4234.48717949;3945.76923015;2173.46153409;229.99999153;-0.00000896;3319.87179293;4138.97435877;3812.17948628;4299.74358989;4300.12820527;4301.15384630;4173.07692294;4205.12820506
4202.43589737;4205.25641019;4694.23077021;4234.74358975;4038.46153805;2169.99999563;229.99999153;-0.00000896;3318.20512626;4138.84615364;3743.84615281;4300.76923091;4501.66666723;4274.35897443;4172.69230756;4205.12820506
4203.33333327;4204.35897429;4733.46153951;4234.48717949;4004.74358926;2170.25640588;229.99999153;-0.00000896;3316.79486985;4141.79487159;3841.41025558;4302.30769245;4562.17948788;4302.05128219;4172.56410243;4205.12820506
4203.07692301;4204.87179481;4830.25641151;4234.35897436;3908.20512751;2169.48717511;70.51281169;-0.00000896;3318.33333139;4140.38461518;3780.25640929;4302.30769245;4697.69230867;4300.51282066;4170.64102551;4205.12820506
4203.20512814;4204.61538455;4859.74359107;4233.97435898;4106.02564075;2166.41025204;-0.00000896;-0.00000896;3319.61538267;4170.12820499;3846.92307609;4302.30769245;4695.38461636;4301.15384630;4173.20512807;4205.12820506
4203.84615378;4201.66666660;4728.20512925;4234.74358975;4109.87179460;2167.69230332;229.99999153;-0.00000896;3318.07692114;4142.94871774;3946.15384553;4301.92307707;4628.84615468;4300.25641040;4172.82051269;4205.12820506
4203.46153840;4201.92307686;4860.00000132;4234.48717949;4037.30769189;2200.64102134;-0.00000896;-0.00000896;3315.76922883;4170.12820499;3874.35897360;4302.43589758;4697.30769328;4300.12820527;4173.20512807;4205.12820506
4204.61538455;4201.66666660;4830.51282177;4235.38461539;3677.94871677;2174.10255973;-0.00000896;-0.00000896;3316.92307498;4139.23076903;3779.35897339;4301.79487194;4667.43589834;4301.15384630;4174.87179474;4205.12820506
4204.48717942;4202.69230763;4928.20512967;4234.87179488;4106.28205101;2170.12820075;-0.00000896;-0.00000896;3320.76922883;4139.23076903;3744.61538358;4301.28205142;4825.51282177;4300.76923091;4173.07692294;4205.12820506
4205.38461532;4201.53846147;4858.33333466;4234.87179488;3944.99999938;2141.02563658;-0.00000896;-0.00000896;3320.64102370;4110.12820485;3876.28205052;4299.87179501;4797.05128324;4302.30769245;4174.87179474;4205.12820506
4203.71794865;4202.43589737;4957.56410410;4235.89743590;4038.20512779;2170.12820075;-0.00000896;-0.00000896;3319.74358780;4136.15384595;4038.71794830;4274.35897443;4695.38461636;4301.41025655;4173.07692294;4205.12820506
4203.33333327;4202.30769224;4793.20512939;4236.41025641;3879.99999924;2168.33332896;-0.00000896;-0.00000896;3317.82051088;4140.89743569;3944.99999938;4301.66666681;4597.30769308;4300.89743604;4173.20512807;4205.12820506
4204.35897429;4203.33333327;4831.41025766;4237.43589744;3874.99999924;2170.25640588;-0.00000896;-0.00000896;3314.99999806;4139.48717928;3975.76923022;4301.79487194;4700.51282149;4300.89743604;4173.33333320;4205.12820506
4204.87179481;4202.30769224;4732.05128310;4238.07692308;4012.17948670;2172.05127768;-0.00000896;-0.00000896;3287.43589542;4137.94871774;3551.79487034;4300.00000014;4534.87179550;4300.89743604;4173.20512807;4205.12820506
4204.48717942;4203.33333327;5090.64102745;4236.15384616;4135.76923056;2169.87179050;-0.00000896;-0.00000896;3288.07692107;4142.17948697;3975.89743535;4301.66666681;5192.30769433;4302.17948732;4174.23076910;4205.12820506
4204.74358968;4202.82051275;4701.28205226;4235.00000000;3840.38461455;2169.99999563;-0.00000896;-0.00000896;3286.28204927;4142.56410236;4009.99999952;4300.25641040;4566.28205198;4305.64102578;4173.20512807;4205.12820506
4205.89743583;4203.46153840;4660.51282142;4235.64102564;3810.89743500;2168.46153409;-0.00000896;-0.00000896;3287.30769030;4143.20512800;3907.43589674;4301.66666681;4431.79487222;4300.00000014;4173.20512807;4205.12820506
4206.53846147;4203.07692301;4697.69230867;4235.00000000;3941.02564040;2170.51281614;-0.00000896;-0.00000896;3287.82051081;4168.58974345;3611.15384484;4300.00000014;4404.35897471;4300.51282066;4173.20512807;4205.12820506
4207.30769224;4202.56410250;4764.48718060;4236.15384616;3943.46153784;2171.53845716;-0.00000896;-0.00000896;3289.74358773;4140.25641005;3614.61538330;4303.71794886;4728.33333438;4300.76923091;4172.94871781;4205.12820506
4207.17948711;4201.92307686;4926.66666813;4234.87179488;3939.10256348;2173.46153409;-0.00000896;-0.00000896;3314.99999806;4140.51282031;3913.58974290;4301.28205142;4860.00000132;4303.46153860;4172.82051269;4205.12820506
4206.92307686;4202.17948711;4732.69230874;4234.10256411;3841.66666584;2173.33332896;-0.00000896;-0.00000896;3316.15384421;4136.28205108;4007.17948670;4270.89743597;4634.35897520;4302.30769245;4175.64102551;4205.12820506
4208.07692301;4201.92307686;4628.58974443;4235.89743590;3680.64102446;2173.71794434;-0.00000896;-0.00000896;3317.30769037;4138.71794851;3842.56410173;4300.76923091;4568.84615454;4301.28205142;4173.33333320;4205.12820506
4207.82051275;4202.30769224;4694.23077021;4235.64102564;3680.76922959;2173.71794434;-0.00000896;-0.00000896;3315.38461344;4135.38461518;3778.46153749;4300.76923091;4663.20512911;4302.69230784;4172.94871781;4205.12820506
4209.10256404;4204.10256404;4958.20512974;4237.56410257;3879.35897360;2200.25640595;-0.00000896;-0.00000896;3316.41025447;4139.48717928;3742.82051178;4300.51282066;4792.94871913;4302.05128219;4173.33333320;4205.12820506
4209.10256404;4204.10256404;4760.64102676;4238.58974359;3910.64102495;2168.46153409;-0.00000896;-0.00000896;3319.35897242;4140.89743569;3677.82051164;4300.25641040;4602.17948795;4301.02564117;4173.84615371;4205.12820506
4235.51282052;4203.46153840;4797.05128324;4238.33333334;3742.17948614;2170.64102127;-0.00000896;-0.00000896;3319.35897242;4136.02564082;3846.15384532;4300.64102578;4728.07692412;4302.94871809;4171.28205115;4237.94871795
4235.25641026;4203.84615378;4764.61538573;4238.71794872;3583.46153708;2171.92307255;-0.00000896;-0.00000896;3318.20512626;4138.07692287;3813.07692218;4273.58974366;4570.00000070;4300.64102578;4173.20512807;4237.94871795
4237.43589744;4204.23076917;4799.35897554;4239.35897436;3844.74358891;2171.66666229;-0.00000896;-0.00000896;3315.64102370;4136.02564082;3912.56410187;4302.30769245;4897.82051421;4303.20512835;4170.89743576;4237.94871795
4236.66666667;4204.87179481;4793.20512939;4237.94871795;3940.64102502;2171.53845716;-0.00000896;-0.00000896;3314.87179293;4137.82051262;3781.53846057;4301.28205142;4500.51282107;4301.41025655;4173.07692294;4237.94871795
4237.56410257;4205.38461532;4859.23077055;4238.20512821;3775.89743493;2170.25640588;-0.00000896;-0.00000896;3316.41025447;4136.92307672;3907.30769162;4299.61538476;4727.69230874;4302.30769245;4175.38461525;4237.94871795
4237.05128206;4204.61538455;4764.48718060;4237.56410257;3840.76922994;2169.99999563;-0.00000896;-0.00000896;3317.94871601;4136.66666646;3913.58974290;4303.20512835;4598.71794949;4301.92307707;4172.69230756;4237.94871795
4236.02564103;4203.97435891;4793.20512939;4236.79487180;3814.23076833;2170.76922640;229.99999153;-0.00000896;3317.17948524;4108.20512793;4041.15384574;4300.76923091;4536.15384678;4301.79487194;4173.07692294;4237.94871795
4235.51282052;4204.35897429;4825.00000125;4236.28205129;3813.33333243;2167.82050845;229.99999153;-0.00000896;3317.17948524;4136.02564082;3580.76922938;4301.02564117;4667.69230860;4301.92307707;4173.07692294;4237.94871795
4234.10256411;4204.61538455;4796.66666785;4235.64102564;3973.84615329;2167.56409819;229.99999153;-0.00000896;3317.17948524;4109.35897408;3906.92307623;4299.48717963;4633.97435981;4301.41025655;4172.94871781;4237.94871795
4208.71794865;4202.94871788;4565.76923147;4236.53846154;3649.74358850;2167.56409819;229.99999153;-0.00000896;3317.94871601;4135.64102544;3878.71794796;4299.87179501;4629.74359058;4303.58974373;4172.82051269;4205.12820506
4207.56410250;4204.61538455;4828.71794997;4234.48717949;3645.64102439;2169.23076486;-0.00000896;-0.00000896;3317.94871601;4138.71794851;3748.46153742;4300.38461553;4699.87179585;4301.53846168;4172.82051269;4205.12820506
4206.41025634;4203.46153840;4796.66666785;4235.00000000;3715.76922966;2170.89743152;-0.00000896;-0.00000896;3316.15384421;4136.41025621;3713.97435787;4302.30769245;4698.97435995;4300.12820527;4172.30769217;4205.12820506
4206.66666660;4203.97435891;4959.74359128;4234.10256411;3843.20512738;2171.92307255;229.99999153;-0.00000896;3317.05128011;4138.20512800;3749.35897332;4301.66666681;4726.28205233;4301.79487194;4173.46153833;4205.12820506
4205.76923070;4204.23076917;4531.02564165;4234.61538462;3912.05128136;2172.17948281;-0.00000896;-0.00000896;3317.05128011;4109.74358947;3846.28205045;4273.97435905;4466.28205177;4301.02564117;4172.05128192;4205.12820506
4206.79487173;4203.58974352;4668.58974450;4234.35897436;3910.12820444;2173.84614947;229.99999153;-0.00000896;3316.41025447;4107.43589716;3876.02564027;4303.58974373;4733.20512925;4301.41025655;4173.07692294;4205.12820506
4206.66666660;4204.61538455;4765.12820624;4235.64102564;3585.38461400;2172.17948281;-0.00000896;-0.00000896;3317.56410062;4136.15384595;3779.87179390;4300.12820527;4628.07692391;4303.20512835;4172.94871781;4205.12820506
4207.30769224;4204.99999993;4760.76923188;4235.38461539;3743.20512717;2171.79486742;229.99999153;-0.00000896;3319.74358780;4137.05128185;3715.76922966;4273.58974366;4668.58974450;4301.53846168;4173.20512807;4205.12820506
4207.69230763;4204.10256404;5220.89743799;4237.17948718;3843.58974276;2169.99999563;-0.00000896;-0.00000896;3319.74358780;4136.41025621;3847.43589661;4301.53846168;4859.23077055;4301.02564117;4172.94871781;4205.12820506
4207.05128199;4204.23076917;4766.02564214;4236.92307693;3879.23076847;2167.30768793;229.99999153;-0.00000896;3318.07692114;4140.76923056;3715.64102453;4301.92307707;4598.46153923;4300.76923091;4173.07692294;4205.12820506
4207.05128199;4204.35897429;4661.41025732;4236.66666667;3844.10256327;2199.23076493;-0.00000896;-0.00000896;3316.15384421;4137.56410236;4076.15384581;4303.46153860;4598.07692385;4301.53846168;4176.02564089;4205.12820506
4206.92307686;4204.87179481;4732.82051387;4237.17948718;3743.33333229;2203.71794441;229.99999153;-0.00000896;3315.64102370;4138.71794851;3614.99999868;4300.76923091;4631.53846238;4302.69230784;4172.69230756;4205.12820506
4205.38461532;4206.15384609;4828.46153972;4235.89743590;3813.84615295;2198.97435467;-0.00000896;-0.00000896;3319.35897242;4138.84615364;3844.48717866;4299.48717963;4766.02564214;4300.89743604;4172.43589730;4205.12820506
4205.89743583;4204.35897429;5024.23077090;4235.64102564;3775.64102467;2140.76922633;229.99999153;-0.00000896;3319.87179293;4140.12820492;3976.92307637;4273.58974366;4792.56410375;4303.71794886;4173.33333320;4205.12820506
4205.25641019;4203.97435891;4828.46153972;4237.17948718;3908.33333264;2168.58973922;-0.00000896;-0.00000896;3314.99999806;4142.30769210;3910.76923008;4301.79487194;4667.56410347;4301.53846168;4172.94871781;4205.12820506
4205.25641019;4204.61538455;4537.05128268;4237.56410257;3713.71794761;2169.61538024;229.99999153;-0.00000896;3287.56410055;4143.20512800;3841.66666584;4301.02564117;4532.17948781;4301.02564117;4169.74358961;4205.12820506
4206.53846147;4203.46153840;4726.66666771;4237.30769231;3747.05128101;2173.58973922;-0.00000896;-0.00000896;3285.64102363;4168.20512807;3942.69230707;4272.69230777;4668.07692398;4302.56410271;4173.07692294;4205.12820506
4207.82051275;4203.33333327;4635.64102648;4237.69230770;3712.69230658;2171.66666229;229.99999153;-0.00000896;3284.23076722;4139.99999980;3748.07692204;4274.61538469;4596.41025718;4301.66666681;4172.56410243;4205.12820506
4233.84615385;4204.23076917;4924.87179633;4235.64102564;3879.48717873;2172.30768793;-0.00000896;-0.00000896;3285.51281850;4140.25641005;3678.46153728;4299.74358989;4830.89743715;4300.51282066;4173.20512807;4237.94871795
4234.74358975;4203.71794865;4632.94871879;4237.43589744;3777.17948621;2170.89743152;229.99999153;-0.00000896;3287.17948517;4137.82051262;3910.64102495;4274.48717956;4600.64102641;4304.10256425;4172.30769217;4237.94871795
4234.61538462;4203.71794865;4766.02564214;4236.28205129;3615.76922945;2169.87179050;-0.00000896;-0.00000896;3288.71794671;4135.89743569;3616.92307561;4273.97435905;4598.84615461;4301.79487194;4172.94871781;4237.94871795
4208.71794865;4204.10256404;4830.51282177;4236.53846154;3742.56410153;2173.33332896;229.99999153;-0.00000896;3315.38461344;4137.56410236;3811.53846064;4301.79487194;4694.35897534;4302.69230784;4174.99999986;4205.12820506
4208.97435891;4203.46153840;4830.38461664;4236.66666667;3807.30769141;2169.74358537;-0.00000896;-0.00000896;3289.23076722;4137.82051262;3711.53846043;4273.71794879;4732.17948823;4302.17948732;4172.43589730;4205.12820506
4208.58974352;4203.46153840;4862.82051414;4236.15384616;4004.74358926;2168.97435460;229.99999153;-0.00000896;3290.12820312;4140.12820492;3843.33333250;4303.97435912;4857.69230902;4302.56410271;4171.53846140;4205.12820506
4207.17948711;4204.48717942;4734.10256515;4236.92307693;3711.66666556;2171.66666229;-0.00000896;-0.00000896;3289.61538260;4136.53846133;3940.89743528;4301.53846168;4632.30769315;4302.69230784;4173.07692294;4205.12820506
4207.17948711;4204.61538455;4634.61538545;4237.94871795;3777.82051185;2174.23076486;229.99999153;-0.00000896;3288.33333132;4140.89743569;3873.07692232;4301.92307707;4537.05128268;4301.66666681;4173.07692294;4205.12820506
4205.38461532;4205.89743583;4797.17948836;4236.66666667;3815.12820423;2200.12820082;-0.00000896;-0.00000896;3286.28204927;4141.66666646;3842.05128122;4300.76923091;4634.61538545;4301.15384630;4174.23076910;4205.12820506
4206.28205122;4206.41025634;4732.69230874;4236.41025641;3877.82051206;2173.97435460;229.99999153;-0.00000896;3285.76922876;4142.82051262;3646.66666542;4300.25641040;4501.28205184;4302.05128219;4173.07692294;4205.12820506
4206.92307686;4204.35897429;4700.38461636;4236.15384616;3776.15384518;2167.69230332;-0.00000896;-0.00000896;3287.82051081;4142.43589723;3841.15384532;4300.38461553;4694.74359072;4302.30769245;4173.97435884;4205.12820506
4206.28205122;4202.69230763;4825.64102690;4235.64102564;3681.41025523;2166.92307255;229.99999153;-0.00000896;3289.74358773;4142.94871774;3938.84615322;4300.51282066;4661.79487270;4302.30769245;4173.20512807;4205.12820506
4205.38461532;4201.41025634;4831.66666792;4236.15384616;3878.58974283;2166.79486742;4.35896540;-0.00000896;3288.97435696;4143.20512800;3774.48717852;4299.48717963;4668.07692398;4301.92307707;4172.82051269;4205.12820506
4205.12820506;4175.89743576;4827.17948843;4236.28205129;3782.30769134;2167.05127768;-0.00000896;-0.00000896;3287.94871594;4139.61538441;3774.74358877;4300.64102578;4726.66666771;4302.43589758;4172.94871781;4205.12820506
4203.97435891;4175.51282038;5023.71795039;4236.92307693;3779.10256313;2141.02563658;-0.00000896;-0.00000896;3285.38461337;4136.53846133;3972.30769176;4299.74358989;4764.10256522;4302.94871809;4173.33333320;4205.12820506
4204.10256404;4176.02564089;4666.79487270;4238.07692308;3842.69230686;2140.38461094;229.99999153;-0.00000896;3286.79486978;4137.82051262;3911.79487110;4301.02564117;4471.66666716;4302.05128219;4172.69230756;4205.12820506
4201.79487173;4174.23076910;4629.35897520;4239.48717949;3908.84615316;2166.41025204;229.99999153;-0.00000896;3283.33333132;4108.33333306;3712.43589633;4273.84615392;4567.82051352;4302.17948732;4173.33333320;4205.12820506
4175.38461525;4175.64102551;4696.02564200;4241.41025641;3714.23076812;2139.35896992;229.99999153;-0.00000896;3255.64102356;4074.61538427;3648.58974234;4301.53846168;4635.12820597;4303.33333348;4172.94871781;4172.30769217
4173.33333320;4201.28205122;4761.41025753;4266.66666674;3843.97435814;2138.84614940;229.99999153;-0.00000896;3254.23076715;4043.58974318;3711.28205017;4302.30769245;4697.94871893;4301.02564117;4172.69230756;4172.30769217
4168.71794858;4204.61538455;4794.87179606;4241.02564103;3815.25640936;2172.56409819;-0.00000896;-0.00000896;3252.43589536;4041.92307651;4004.99999952;4301.92307707;4761.02564214;4302.17948732;4172.82051269;4172.30769217
4108.46153819;4234.48717949;4661.02564193;4237.05128206;3676.28205010;2265.64102148;-0.00000896;-0.00000896;3250.89743382;4040.64102523;3944.35897374;4274.74358982;4601.92307769;4303.46153860;4173.20512807;4106.66666639
4103.84615357;4239.61538462;4701.02564200;4208.33333327;3681.79487062;2237.69230346;-0.00000896;-0.00000896;3283.58974158;4069.99999966;3748.46153742;4274.35897443;4695.12820610;4301.28205142;4173.46153833;4106.66666639
4074.74358940;4268.07692315;4963.20512974;4201.92307686;3780.51281954;2202.17948288;-0.00000896;-0.00000896;3283.33333132;4077.69230735;3676.79487062;4299.61538476;4697.05128303;4301.53846168;4173.33333320;4073.84615350
4073.46153812;4271.41025648;4798.71794990;4176.28205115;3815.25640936;2199.74358544;-0.00000896;-0.00000896;3251.41025433;4135.64102544;3879.10256334;4273.97435905;4762.82051394;4303.07692322;4175.38461525;4073.71794837
4076.15384581;4274.35897443;4861.28205261;4175.38461525;3908.07692239;2202.69230339;-0.00000896;-0.00000896;3188.97435675;4142.82051262;3782.30769134;4300.64102578;4663.20512911;4303.46153860;4173.97435884;4073.71794837
4107.30769203;4304.10256425;4760.76923188;4175.25641012;3683.33333216;2232.05127782;-0.00000896;-0.00000896;3122.43589508;4201.41025634;3649.99999875;4301.92307707;4566.15384685;4302.05128219;4174.23076910;4106.53846126
4139.48717928;4307.56410271;4955.89743743;4172.56410243;4041.28205087;2207.05127775;-0.00000896;-0.00000896;3059.87179237;4237.43589744;3841.66666584;4301.79487194;4696.53846252;4300.25641040;4174.23076910;4139.35897415
4172.69230756;4333.71794893;3118.33333097;4141.15384595;4011.66666618;2202.82050852;-0.00000896;-0.00000896;3055.51281802;4272.94871802;4661.92307783;4301.53846168;3249.87179279;4299.74358989;4174.87179474;4172.17948704
4203.58974352;4334.10256431;4109.48717921;4137.94871774;5553.20513099;2169.10255973;-0.00000896;-0.00000896;3027.05127948;4338.84615406;3906.66666598;4301.28205142;4302.69230784;4300.51282066;4174.87179474;4204.99999993
4208.97435891;4333.33333355;3743.71794768;4109.23076896;5055.12820687;2170.51281614;-0.00000896;-0.00000896;3058.33333084;4369.23076951;4631.41025725;4302.05128219;3874.48717873;4300.89743604;4175.12820499;4204.99999993
4240.51282052;4306.66666681;3451.28204962;4109.74358947;4239.87179488;2134.99999556;-0.00000896;-0.00000896;3087.82051039;4367.56410285;4137.30769210;4300.25641040;3646.15384491;4299.48717963;4175.64102551;4237.82051282
4268.33333341;4302.05128219;3875.89743514;4110.25640998;4763.71794983;2139.48717504;-0.00000896;-0.00000896;3090.25640783;4367.56410285;4464.35897485;4299.48717963;4170.64102551;4300.76923091;4175.64102551;4270.64102571
4270.12820520;4274.10256418;2855.64102273;4107.56410229;4336.53846175;2199.74358544;-0.00000896;-0.00000896;3091.92307449;4337.43589765;4398.33333368;4302.94871809;3156.92307463;4300.12820527;4176.02564089;4270.64102571
4268.97435905;4274.48717956;4010.89743541;4077.17948684;4989.23077083;2202.56409826;-0.00000896;-0.00000896;3121.15384380;4306.66666681;4236.41025641;4300.00000014;4104.87179460;4300.64102578;4175.64102551;4270.64102571
4268.71794879;4300.89743604;3516.66666514;4074.74358940;4827.69230895;2200.64102134;-0.00000896;-0.00000896;3125.89743354;4334.10256431;4335.25641047;4301.92307707;3940.76923015;4300.76923091;4175.89743576;4270.64102571
4241.53846154;4302.05128219;4206.79487173;4073.58974325;4303.97435912;2200.64102134;-0.00000896;-0.00000896;3154.10256181;4333.33333355;4268.33333341;4302.05128219;3744.10256306;4274.61538469;4176.02564089;4237.82051282
4239.23076923;4303.33333348;3350.12820326;4073.58974325;4831.79487305;2166.66666229;-0.00000896;-0.00000896;3157.17948489;4334.10256431;4168.71794858;4301.15384630;3580.76922938;4299.87179501;4201.41025634;4237.82051282
4235.00000000;4301.92307707;3682.05128087;4071.41025607;4862.17948850;2167.05127768;-0.00000896;-0.00000896;3157.30769002;4338.58974380;4235.38461539;4301.79487194;3714.23076812;4300.38461553;4201.02564096;4237.82051282
4207.56410250;4301.02564117;3711.15384505;4043.33333292;4958.71795025;2141.15384171;-0.00000896;-0.00000896;3153.84615156;4337.69230790;4137.94871774;4301.15384630;3808.46153756;4272.43589751;4173.71794858;4204.87179481
4207.43589737;4274.61538469;3972.69230714;4039.23076882;4826.28205254;2136.28204684;-0.00000896;-0.00000896;3123.58974123;4365.25641054;4138.20512800;4301.28205142;3743.20512717;4273.97435905;4201.41025634;4204.87179481
4235.51282052;4273.33333341;4012.17948670;4011.15384567;4923.33333480;2136.92307248;-0.00000896;-0.00000896;3120.76922841;4368.46153874;4038.46153805;4302.05128219;3613.33333202;4272.82051289;4202.05128199;4237.69230770
4238.84615385;4272.30769238;3646.79487055;4009.61538413;4796.28205247;2105.64102113;-0.00000896;-0.00000896;3120.38461303;4371.41025669;4070.25640991;4302.17948732;3910.64102495;4273.33333341;4201.28205122;4237.69230770
4266.92307700;4272.30769238;4108.33333306;4008.07692259;4895.38461678;2100.76922626;-0.00000896;-0.00000896;3153.07692079;4368.84615413;4073.97435863;4301.92307707;3909.99999931;4272.05128212;4201.92307686;4270.51282059
4272.56410264;4270.38461546;3938.46153784;4005.64102516;5156.15384810;2104.99999549;229.99999153;-0.00000896;3185.12820291;4368.97435926;4171.15384602;4300.51282066;3712.30769120;4271.66666674;4176.02564089;4270.51282059
4302.69230784;4269.23076930;3742.82051178;3977.05128150;4366.15384644;2106.28204677;104.61537586;-0.00000896;3218.46153631;4369.48717977;4174.23076910;4301.53846168;4208.07692301;4271.66666674;4201.66666660;4303.33333348
4307.43589758;4268.58974366;3910.12820444;3976.02564047;5155.89743785;2134.87179043;34.23076034;-0.00000896;3254.74358766;4366.28205156;3977.94871740;4303.46153860;4069.99999966;4271.53846161;4201.53846147;4303.33333348
4335.89743611;4268.58974366;4565.51282121;3971.92307637;4629.35897520;2134.23076479;4.48717053;-0.00000896;3314.99999806;4367.56410285;4042.30769189;4301.28205142;4530.25641089;4270.51282059;4201.79487173;4336.15384637
4339.74358996;4241.92307693;3972.05128150;3944.61538399;4563.46153916;2103.46153395;229.99999153;-0.00000896;3353.46153659;4336.15384637;4271.79487187;4306.53846168;3846.41025558;4268.97435905;4201.92307686;4336.15384637
4338.33333355;4238.46153847;4039.99999959;3941.66666605;4529.35897499;2103.97435446;229.99999153;-0.00000896;3417.56410083;4307.43589758;4398.20512856;4302.30769245;4234.35897436;4269.74358982;4202.05128199;4336.15384637
4339.10256431;4235.25641026;3971.41025586;3938.97435835;4340.00000021;2136.41025197;229.99999153;-0.00000896;3452.69230603;4306.53846168;4201.02564096;4304.10256425;4174.87179474;4267.17948725;4202.05128199;4336.15384637
4339.10256431;4238.46153847;4535.00000063;3939.10256348;4699.61538559;2139.48717504;229.99999153;-0.00000896;3482.30769071;4306.53846168;4267.30769238;4305.12820527;4273.71794879;4269.23076930;4201.79487173;4336.15384637
4366.79487208;4241.92307693;4431.02564145;3940.89743528;4372.30769259;2139.23076479;229.99999153;-0.00000896;3516.92307540;4332.43589765;3974.48717894;4304.61538476;4563.84615454;4268.20512828;4202.30769224;4368.97435926
4367.17948746;4267.94871802;4530.12820576;3942.69230707;4858.33333466;2102.56409805;229.99999153;-0.00000896;3581.92307554;4365.38461567;4273.97435905;4305.51282066;4340.38461560;4269.61538469;4202.05128199;4368.97435926
4367.56410285;4268.07692315;4628.07692391;3946.53846092;4568.71794942;2103.46153395;229.99999153;-0.00000896;3647.56410132;4366.41025669;4237.30769231;4303.46153860;4633.84615468;4268.20512828;4202.82051275;4368.97435926
4366.02564131;4267.30769238;4402.43589779;3973.58974304;4503.20512876;2107.94871344;229.99999153;-0.00000896;3709.48717838;4365.51282079;4172.56410243;4303.58974373;4464.23076972;4241.15384616;4201.53846147;4368.97435926
4365.64102592;4267.56410264;4569.35897506;3976.15384560;4530.89743653;2135.25640581;229.99999153;-0.00000896;3748.97435794;4368.71794900;4174.87179474;4303.46153860;4630.89743674;4267.05128212;4202.17948711;4368.97435926
4338.58974380;4269.35897443;4072.30769196;3978.71794817;4530.38461601;2136.53845710;229.99999153;-0.00000896;3811.66666577;4370.12820541;4241.92307693;4303.84615399;4168.71794858;4240.89743590;4204.23076917;4336.15384637
4337.30769252;4271.02564110;4234.10256411;4004.23076875;4201.02564096;2104.99999549;229.99999153;-0.00000896;3845.89743507;4405.38461574;4240.25641026;4303.33333348;4335.51282073;4241.28205129;4202.30769224;4336.15384637
4335.64102585;4272.05128212;4695.64102662;4011.28205080;4631.28205212;2070.38461080;229.99999153;-0.00000896;3873.33333257;4434.87179529;3975.12820458;4305.51282066;4597.43589820;4238.84615385;4202.94871788;4336.15384637
4334.74358996;4270.00000007;4727.82051387;4041.53846113;4598.71794949;2009.23076451;229.99999153;-0.00000896;3878.20512744;4438.07692350;4009.99999952;4306.53846168;4796.66666785;4240.64102564;4202.69230763;4336.15384637
4335.76923098;4241.41025641;4633.07692391;4073.71794837;4566.66666737;2036.28204663;229.99999153;-0.00000896;3909.48717880;4465.38461587;4267.05128212;4307.05128219;4465.38461587;4239.74358975;4202.69230763;4336.28205149
4336.02564124;4238.46153847;4465.76923126;4106.66666639;4201.28205122;2068.97435439;229.99999153;-0.00000896;3939.48717887;4437.69230811;4043.97435856;4303.33333348;4463.71794921;4239.61538462;4202.43589737;4336.28205149
4336.41025662;4235.64102564;4271.28205136;4110.64102537;4467.94871844;2042.69230304;229.99999153;-0.00000896;3973.07692252;4432.30769273;4307.56410271;4305.25641040;4140.64102544;4239.61538462;4203.07692301;4336.28205149
4333.33333355;4205.76923070;4367.56410285;4138.20512800;4369.61538490;2040.64102099;229.99999153;-0.00000896;4009.23076875;4399.48717984;4234.35897436;4304.35897450;4431.28205170;4238.33333334;4203.07692301;4336.28205149
4305.51282066;4201.02564096;4438.46153888;4136.79487159;4307.17948732;2010.12820041;229.99999153;-0.00000896;4072.69230735;4369.87179515;4011.02564054;4303.84615399;4402.94871830;4241.28205129;4202.56410250;4303.46153860
4272.56410264;4169.23076910;4726.28205233;4109.10256383;4466.66666716;1973.33332854;229.99999153;-0.00000896;4104.23076896;4335.64102585;4269.74358982;4303.71794886;4634.35897520;4239.87179488;4202.17948711;4270.64102571
4236.41025641;4136.66666646;4565.89743660;4107.94871767;4496.92307748;1940.64102078;229.99999153;-0.00000896;4103.33333306;4334.61538483;4398.84615420;4303.58974373;4766.28205240;4238.07692308;4202.82051275;4237.82051282
4204.23076917;4104.10256383;4532.43589807;4135.89743569;4503.58974415;1939.99999514;229.99999153;-0.00000896;4074.87179453;4305.64102578;4107.17948691;4303.20512835;4470.12820562;4238.58974359;4201.66666660;4204.99999993
4172.17948704;4073.07692273;4568.33333403;4138.58974339;4536.92307755;1942.30768745;229.99999153;-0.00000896;4044.10256369;4303.71794886;4109.23076896;4305.51282066;4662.94871886;4238.33333334;4202.30769224;4172.17948704
4170.38461525;4042.82051241;4500.25641082;4170.12820499;4532.17948781;1936.53845668;229.99999153;-0.00000896;4041.41025600;4302.05128219;3941.41025579;4306.41025655;4566.15384685;4236.41025641;4202.05128199;4172.17948704
4168.46153833;4037.43589702;4827.69230895;4176.02564089;4499.48718005;1937.69230283;229.99999153;-0.00000896;4037.56410215;4268.58974366;3911.66666598;4305.64102578;4438.71794914;4237.43589744;4202.05128199;4172.17948704
4169.74358961;4006.79487131;4431.66666709;4205.25641019;4172.30769217;1973.33332854;229.99999153;-0.00000896;4005.12820465;4239.61538462;4370.76923105;4305.25641040;4662.69230860;4237.69230770;4202.94871788;4172.30769217
4170.89743576;4004.99999952;4399.23076958;4206.92307686;4334.48717970;2009.61537989;229.99999153;-0.00000896;3973.07692252;4174.87179474;4467.30769280;4306.28205142;4398.07692343;4237.82051282;4176.15384602;4172.30769217
4172.94871781;4005.76923029;4504.23076979;4207.05128199;4302.94871809;2074.35896978;229.99999153;-0.00000896;3944.48717887;4140.12820492;4400.76923112;4332.30769252;4661.92307783;4238.07692308;4174.35897422;4172.30769217
4176.28205115;4010.51282003;4632.30769315;4208.71794865;4403.58974394;2106.79486728;229.99999153;-0.00000896;3942.43589681;4106.02564075;4400.64102599;4303.71794886;4831.28205254;4235.76923077;4176.02564089;4172.30769217
4203.07692301;4038.71794830;4240.89743590;4233.97435898;4337.56410278;2073.58973901;229.99999153;-0.00000896;3940.64102502;4074.48717914;4665.89743680;4306.28205142;4269.35897443;4236.66666667;4174.87179474;4205.12820506
4206.41025634;4042.05128164;4238.46153847;4234.10256411;4102.69230742;2069.10255952;229.99999153;-0.00000896;3943.71794810;4042.30769189;4660.51282142;4305.00000014;4400.12820548;4237.30769231;4175.38461525;4205.12820506
4206.79487173;4043.71794830;4142.94871774;4235.76923077;4235.12820513;2104.23076472;229.99999153;-0.00000896;3911.28205059;4039.23076882;4893.20512960;4332.56410278;3943.71794810;4236.02564103;4174.87179474;4205.12820506
4208.97435891;4073.46153812;4072.17948684;4207.05128199;4202.56410250;2140.38461094;229.99999153;-0.00000896;3875.89743514;4039.23076882;4496.66666723;4305.76923091;4301.66666681;4236.02564103;4201.53846147;4205.12820506
4236.92307693;4106.41025614;4365.76923105;4201.79487173;4402.94871830;2166.79486742;229.99999153;-0.00000896;3847.82051199;4041.28205087;4500.12820569;4305.89743604;4139.99999980;4236.92307693;4174.48717935;4237.94871795
4238.84615385;4137.94871774;4268.46153853;4172.43589730;4136.92307672;2168.07691870;6.28204232;-0.00000896;3876.02564027;4039.23076882;4660.89743680;4306.79487194;4536.28205191;4235.25641026;4174.35897422;4237.82051282
4266.92307700;4169.87179474;4665.00000091;4168.84615371;4467.69230818;2141.15384171;-0.00000896;-0.00000896;3880.25640950;4039.61538420;4697.43589841;4305.00000014;4403.71794907;4235.00000000;4174.35897422;4270.64102571
4270.00000007;4201.28205122;4433.58974401;4141.41025621;4171.41025628;2101.02563651;229.99999153;-0.00000896;3910.64102495;4043.20512779;4762.56410368;4333.46153867;4239.35897436;4236.15384616;4174.10256397;4270.64102571
4272.30769238;4205.12820506;4337.56410278;4139.74358954;4235.25641026;2073.33332875;-0.00000896;-0.00000896;3943.33333271;4070.38461504;4797.94871913;4306.79487194;4234.87179488;4234.35897436;4174.35897422;4270.64102571
4272.82051289;4234.23076923;4271.02564110;4142.56410236;4370.00000028;2102.69230318;-0.00000896;-0.00000896;3945.12820451;4073.33333299;4534.10256473;4333.46153867;4366.79487208;4208.58974352;4174.48717935;4270.64102571
4273.46153853;4237.69230770;4463.71794921;4168.33333320;4272.69230777;2073.97435439;-0.00000896;-0.00000896;3971.28205073;4075.25640991;4731.53846258;4307.30769245;4273.84615392;4234.35897436;4174.23076910;4270.64102571
4274.10256418;4241.02564103;4240.51282052;4168.58974345;4205.76923070;2102.82050831;-0.00000896;-0.00000896;3972.69230714;4102.56410229;4793.71794990;4305.89743604;4305.38461553;4208.46153840;4174.48717935;4270.64102571
4273.58974366;4268.84615392;4102.82051255;4142.94871774;4109.99999973;2072.56409798;-0.00000896;-0.00000896;3978.58974304;4102.94871767;4860.25641158;4305.76923091;4203.97435891;4234.10256411;4174.48717935;4270.64102571
4270.76923084;4269.23076930;4233.97435898;4168.20512807;4143.07692287;2037.43589278;-0.00000896;-0.00000896;4008.58974311;4073.46153812;4793.84615503;4332.82051303;4168.84615371;4207.82051275;4202.05128199;4270.64102571
4267.17948725;4241.92307693;4176.15384602;4171.53846140;4269.23076930;2074.99999542;-0.00000896;-0.00000896;4004.99999952;4037.30769189;4760.89743701;4306.02564117;4202.82051275;4207.43589737;4174.99999986;4270.64102571
4238.07692308;4267.69230777;4174.87179474;4175.64102551;4403.07692343;2100.64102113;-0.00000896;-0.00000896;3977.56410201;4036.92307651;4139.23076903;4335.38461560;4269.10256418;4235.12820513;4174.87179474;4237.82051282
4209.10256404;4270.12820520;4201.66666660;4202.82051275;4300.89743604;2074.35896978;-0.00000896;-0.00000896;3977.82051227;4040.12820472;3618.33333202;4305.89743604;4170.64102551;4207.56410250;4172.43589730;4205.12820506
4203.20512814;4273.33333341;4307.43589758;4175.12820499;4401.15384651;2040.89743125;-0.00000896;-0.00000896;3979.23076868;4070.76923043;3682.43589626;4302.56410271;4204.61538455;4234.10256411;4175.12820499;4204.99999993
4169.48717935;4273.07692315;4269.48717956;4171.66666653;4365.25641054;2008.84614912;-0.00000896;-0.00000896;4007.05128157;4075.51282017;3483.46153687;4306.41025655;4206.15384609;4207.30769224;4201.28205122;4172.17948704
4137.82051262;4270.25641033;4698.97435995;4143.07692287;4464.35897485;1974.35896957;-0.00000896;-0.00000896;4007.94871747;4110.64102537;3579.61538323;4332.56410278;4596.53846231;4207.56410250;4175.51282038;4139.35897415
4107.17948691;4267.43589751;4465.64102613;4142.82051262;4241.02564103;1971.28204649;-0.00000896;-0.00000896;4005.76923029;4141.92307672;3515.25640873;4332.69230790;4274.35897443;4207.30769224;4175.25641012;4106.53846126
4102.69230742;4240.89743590;4365.12820541;4170.89743576;4307.30769245;2006.53845682;-0.00000896;-0.00000896;3978.20512765;4170.51282038;3617.17948586;4306.41025655;4338.58974380;4206.92307686;4175.38461525;4106.53846126
4103.20512793;4239.74358975;4500.38461594;4174.74358961;4534.35897499;2039.35896971;-0.00000896;-0.00000896;3975.64102509;4201.66666660;3643.58974234;4306.02564117;4206.15384609;4205.89743583;4175.38461525;4106.53846126
4104.99999973;4239.48717949;4470.89743639;4176.28205115;4503.58974415;2010.12820041;-0.00000896;-0.00000896;3974.23076868;4208.97435891;3549.61538316;4306.53846168;4432.05128247;4204.99999993;4176.15384602;4106.53846126
4108.71794844;4237.17948718;4401.15384651;4203.20512814;4630.12820597;2035.89743125;-0.00000896;-0.00000896;4007.30769183;4207.82051275;3611.79487048;4334.48717970;4468.58974408;4206.92307686;4175.38461525;4106.66666639
4136.41025621;4234.23076923;4400.12820548;4201.28205122;4371.15384644;2101.66666215;-0.00000896;-0.00000896;4041.53846113;4206.02564096;3943.84615322;4333.46153867;4399.61538497;4205.25641019;4175.64102551;4139.48717928
4139.35897415;4234.61538462;4142.69230749;4173.71794858;4332.94871816;2071.92307234;-0.00000896;-0.00000896;4102.82051255;4234.74358975;3973.97435842;4307.17948732;4301.02564117;4206.15384609;4175.89743576;4139.35897415
4141.02564082;4208.46153840;4402.82051317;4170.25641012;4366.92307720;2069.35896978;-0.00000896;-0.00000896;4142.94871774;4234.48717949;4106.41025614;4306.41025655;4431.28205170;4204.61538455;4201.15384609;4139.35897415
4140.51282031;4206.79487173;4366.02564131;4141.41025621;4302.17948732;2069.99999542;-0.00000896;-0.00000896;4236.15384616;4239.87179488;4075.51282017;4332.69230790;4336.79487201;4204.10256404;4175.64102551;4139.35897415
4137.56410236;4204.61538455;4763.46153958;4138.84615364;4399.48717984;2003.97435425;-0.00000896;-0.00000896;4302.05128219;4240.25641026;4107.30769203;4332.56410278;4399.23076958;4203.84615378;4201.66666660;4139.35897415
4108.46153819;4202.69230763;4405.12820548;4139.99999980;4238.20512821;1943.46153360;-0.00000896;-0.00000896;4335.76923098;4241.53846154;4240.76923077;4306.92307707;4369.23076951;4204.10256404;4176.15384602;4106.53846126
4076.92307658;4174.99999986;4337.69230790;4172.43589730;4172.94871781;1938.33332847;-0.00000896;-0.00000896;4369.74359003;4241.02564103;4335.38461560;4307.30769245;4109.23076896;4204.35897429;4176.28205115;4073.71794837
4071.41025607;4202.17948711;4535.12820576;4234.35897436;4334.74358996;1976.41025162;-0.00000896;-0.00000896;4367.30769259;4240.51282052;4497.05128261;4306.15384630;4404.61538497;4202.82051275;4175.25641012;4073.84615350
4041.92307651;4207.43589737;4338.97435919;4271.15384623;4172.94871781;1974.10255931;229.99999153;-0.00000896;4335.38461560;4268.84615392;4402.94871830;4333.20512842;4236.28205129;4202.43589737;4175.76923063;4041.02564061
4039.48717907;4235.76923077;4205.38461532;4332.69230790;4012.05128157;1941.28204642;229.99999153;-0.00000896;4332.30769252;4299.48717963;4699.35897534;4305.00000014;4206.66666660;4203.33333327;4175.64102551;4041.15384574
4012.17948670;4239.61538462;4136.66666646;4338.58974380;4202.69230763;1974.35896957;229.99999153;-0.00000896;4269.74358982;4305.76923091;4399.23076958;4305.64102578;4072.05128171;4203.46153840;4175.76923063;4008.33333285
4009.35897388;4241.53846154;4274.10256418;4367.56410285;4172.56410243;1942.69230283;229.99999153;-0.00000896;4204.48717942;4306.53846168;4562.56410326;4305.38461553;4171.02564089;4203.71794865;4175.89743576;4008.33333285
4008.84615336;4240.38461539;4436.28205170;4369.61538490;4370.76923105;1910.38461045;-0.00000896;-0.00000896;4168.33333320;4336.02564124;4337.94871816;4307.17948732;4335.25641047;4202.56410250;4175.64102551;4008.33333285
4008.20512772;4234.61538462;4241.15384616;4371.02564131;4136.41025621;1910.51281558;-0.00000896;-0.00000896;4108.58974332;4338.07692329;4235.76923077;4306.79487194;4208.07692301;4203.58974352;4202.82051275;4008.33333285
4008.07692259;4204.23076917;4398.20512856;4371.53846182;4141.28205108;1911.53845661;229.99999153;-0.00000896;4077.17948684;4338.33333355;4139.48717928;4306.92307707;4175.64102551;4203.97435891;4175.76923063;4008.33333285
4008.46153798;4203.84615378;3877.69230693;4372.56410285;4137.05128185;1940.64102078;-0.00000896;-0.00000896;4071.41025607;4369.74359003;4073.20512786;4302.30769245;4174.61538448;4203.07692301;4175.12820499;4008.33333285
4010.51282003;4205.25641019;4399.35897471;4370.12820541;4202.30769224;1972.17948239;229.99999153;-0.00000896;4041.02564061;4397.94871830;4044.87179446;4332.30769252;4466.41025690;4204.99999993;4175.25641012;4008.33333285
4039.35897395;4208.71794865;4270.25641033;4339.23076944;4463.71794921;1905.12820020;-0.00000896;-0.00000896;4039.87179446;4431.15384657;3782.43589647;4305.25641040;4205.51282045;4202.94871788;4174.87179474;4041.15384574
4042.69230728;4235.64102564;4498.20512876;4332.56410278;4499.10256466;1843.46153339;229.99999153;-0.00000896;4043.07692266;4438.33333375;4170.25641012;4306.79487194;4371.53846182;4203.84615378;4175.76923063;4041.15384574
4070.25640991;4236.15384616;4566.28205198;4302.56410271;4529.48718012;1778.58973838;-0.00000896;-0.00000896;4069.74358940;4469.74359023;4202.05128199;4305.51282066;4432.43589786;4205.64102558;4175.64102551;4073.84615350
4074.61538427;4234.87179488;4011.53846106;4300.38461553;3910.89743521;1779.61537941;229.99999153;-0.00000896;4072.82051248;4471.28205177;4238.71794872;4303.84615399;3911.92307623;4203.58974352;4175.25641012;4073.84615350
4076.41025607;4206.66666660;4437.05128247;4274.48717956;4531.15384678;1806.92307178;-0.00000896;-0.00000896;4102.82051255;4470.64102613;4400.89743625;4306.15384630;4334.23076944;4204.10256404;4176.15384602;4073.84615350
4077.05128171;4175.12820499;4338.84615406;4273.20512828;4434.35897478;1774.74358454;229.99999153;-0.00000896;4110.38461511;4467.17948767;4171.53846140;4305.12820527;4402.56410292;4203.84615378;4175.51282038;4073.84615350
4076.53846119;4143.33333313;4339.61538483;4300.12820527;4237.43589744;1809.74358461;-0.00000896;-0.00000896;4135.89743569;4437.05128247;4240.00000000;4306.53846168;4365.25641054;4205.38461532;4175.25641012;4073.84615350
4077.69230735;4139.61538441;4398.58974394;4300.00000014;4142.17948697;1843.20512314;229.99999153;-0.00000896;4138.71794851;4432.56410298;3972.05128150;4307.56410271;4366.92307720;4204.61538455;4201.92307686;4073.84615350
4103.46153819;4139.35897415;4300.00000014;4274.10256418;4140.25641005;1911.15384122;-0.00000896;-0.00000896;4136.79487159;4431.79487222;3810.38461449;4306.79487194;4236.28205129;4206.92307686;4175.64102551;4106.66666639
4104.61538434;4168.71794858;4731.53846258;4274.10256418;4299.74358989;1942.17948232;229.99999153;-0.00000896;4108.46153819;4431.15384657;3842.17948635;4306.28205142;4401.92307727;4205.89743583;4174.99999986;4106.66666639
4105.38461511;4172.69230756;4465.12820562;4272.94871802;4403.33333368;1944.48717463;-0.00000896;-0.00000896;4136.15384595;4438.07692350;3880.51281975;4306.28205142;4503.07692364;4205.76923070;4175.64102551;4106.66666639
4107.56410229;4174.87179474;4466.92307741;4274.74358982;4367.82051310;1937.17948232;229.99999153;-0.00000896;4135.51282031;4464.35897485;3944.99999938;4303.71794886;4335.64102585;4204.23076917;4175.38461525;4106.66666639
4106.15384588;4172.56410243;4503.46153902;4301.28205142;4139.23076903;1908.97435404;-0.00000896;-0.00000896;4108.97435870;4436.41025683;3878.33333257;4332.43589765;4334.35897457;4204.61538455;4174.87179474;4106.66666639
4104.61538434;4169.35897422;4338.07692329;4302.30769245;4143.07692287;1940.76922591;229.99999153;-0.00000896;4108.84615357;4434.61538504;4103.58974332;4303.97435912;4464.35897485;4205.51282045;4176.28205115;4106.66666639
4104.61538434;4143.07692287;4661.15384706;4304.10256425;4268.58974366;1976.66666188;-0.00000896;-0.00000896;4104.74358947;4432.17948760;3880.89743514;4305.76923091;4567.05128275;4204.48717942;4175.38461525;4106.66666639
4104.74358947;4168.46153833;4535.64102627;4303.58974373;4303.58974373;2038.46153381;229.99999153;-0.00000896;4076.53846119;4402.30769266;3678.33333216;4304.74358989;4398.20512856;4204.35897429;4174.99999986;4106.66666639
4106.92307665;4172.82051269;4726.66666771;4305.89743604;4304.35897450;2067.69230311;-0.00000896;-0.00000896;4044.23076882;4406.02564138;3809.23076833;4307.30769245;4401.53846189;4207.30769224;4174.74358961;4106.66666639
4110.38461511;4201.92307686;4404.35897471;4336.66666688;4301.02564117;2070.12820055;229.99999153;-0.00000896;4037.94871754;4432.17948760;3580.12820374;4332.43589765;4333.46153867;4206.79487173;4175.64102551;4106.79487152
4138.07692287;4203.84615378;4634.87179571;4366.41025669;4270.51282059;2069.35896978;-0.00000896;-0.00000896;4006.66666618;4403.97435933;3748.97435794;4303.84615399;4304.10256425;4205.64102558;4174.61538448;4139.61538441
4141.28205108;4204.99999993;4633.71794956;4367.30769259;4435.12820555;2070.25640567;229.99999153;-0.00000896;3943.97435835;4436.02564145;3943.71794810;4332.30769252;4534.87179550;4206.41025634;4174.74358961;4139.61538441
4169.23076910;4203.71794865;4563.46153916;4338.97435919;4305.00000014;2037.56409791;-0.00000896;-0.00000896;3879.61538385;4431.02564145;3681.66666549;4303.20512835;4438.71794914;4206.66666660;4172.56410243;4172.43589730
4173.46153833;4204.61538455;4500.51282107;4332.43589765;4176.02564089;2035.51281586;229.99999153;-0.00000896;3876.53846078;4434.48717991;3912.82051213;4307.17948732;4239.74358975;4206.02564096;4175.12820499;4172.43589730
4176.28205115;4207.69230763;4304.87179501;4307.17948732;4039.74358933;1974.61537982;-0.00000896;-0.00000896;3873.58974283;4432.94871837;3749.61538358;4305.89743604;4365.51282079;4207.05128199;4175.76923063;4172.30769217
4203.84615378;4236.28205129;4565.64102634;4334.10256431;4268.58974366;1972.05127726;229.99999153;-0.00000896;3846.53846071;4436.79487222;3842.69230686;4305.89743604;4595.12820590;4206.79487173;4174.87179474;4205.25641019
4206.41025634;4240.12820513;4405.25641061;4336.92307714;4238.84615385;1943.33332847;-0.00000896;-0.00000896;3841.66666584;4436.15384657;3844.23076840;4306.02564117;4665.51282142;4205.51282045;4174.99999986;4205.25641019
4208.46153840;4268.46153853;4569.48718019;4340.00000021;4434.35897478;1908.84614892;-0.00000896;-0.00000896;3813.20512731;4467.43589793;3943.71794810;4303.33333348;4666.41025732;4206.66666660;4175.12820499;4205.25641019
4235.76923077;4270.25641033;4337.94871816;4365.51282079;4203.33333327;1878.20512321;-0.00000896;-0.00000896;3811.66666577;4496.41025697;3873.84615309;4305.38461553;4438.46153888;4207.30769224;4175.51282038;4238.07692308
4237.05128206;4269.35897443;4332.43589765;4339.61538483;4172.17948704;1843.84614878;229.99999153;-0.00000896;3811.02564013;4499.10256466;3808.71794782;4305.12820527;4434.35897478;4206.92307686;4175.64102551;4238.07692308
4237.94871795;4240.00000000;4628.20512904;4337.43589765;4431.53846196;1808.97435384;229.99999153;-0.00000896;3812.17948628;4503.07692364;3482.43589584;4306.02564117;4599.23077000;4207.94871788;4175.76923063;4238.07692308
4237.69230770;4207.82051275;4471.02564152;4334.61538483;4304.35897450;1871.79486680;229.99999153;-0.00000896;3809.87179397;4497.05128261;3680.38461421;4307.30769245;4438.20512863;4207.30769224;4174.23076910;4238.07692308
4238.84615385;4205.12820506;4568.46153916;4333.71794893;4401.28205163;1908.84614892;229.99999153;-0.00000896;3809.23076833;4470.00000049;3678.07692190;4303.58974373;4632.30769315;4208.58974352;4175.76923063;4238.07692308
4239.48717949;4206.53846147;3941.15384553;4333.84615406;3945.12820451;1876.66666167;-0.00000896;-0.00000896;3840.64102481;4464.74359023;3552.30769085;4304.48717963;3910.12820444;4234.10256411;4175.89743576;4238.07692308
4240.25641026;4208.07692301;4434.74359016;4305.51282066;4307.05128219;1903.71794379;-0.00000896;-0.00000896;3844.61538379;4470.76923126;3780.89743493;4332.30769252;4567.30769301;4208.07692301;4175.64102551;4237.94871795
4241.28205129;4235.89743590;4202.56410250;4304.35897450;4268.71794879;1911.53845661;-0.00000896;-0.00000896;3843.71794789;4467.69230818;3938.46153784;4305.25641040;4338.33333355;4233.97435898;4201.02564096;4237.94871795
4240.89743590;4238.97435898;4533.84615448;4301.41025655;4241.15384616;1937.17948232;-0.00000896;-0.00000896;3840.64102481;4500.89743646;4009.23076875;4332.94871816;4536.02564165;4208.84615378;4175.76923063;4237.94871795
4267.43589751;4240.64102564;4597.69230846;4272.94871802;4305.64102578;1904.23076430;-0.00000896;-0.00000896;3844.74358891;4530.51282114;3842.17948635;4304.35897450;4303.97435912;4208.97435891;4176.28205115;4270.76923084
4269.10256418;4240.38461539;4140.12820492;4271.79487187;3943.97435835;1845.25640519;-0.00000896;-0.00000896;3846.41025558;4535.12820576;3973.58974304;4306.41025655;3975.89743535;4208.84615378;4176.02564089;4270.76923084
4271.02564110;4239.35897436;4139.10256390;4270.89743597;4338.20512842;1838.20512314;-0.00000896;-0.00000896;3873.71794796;4533.97435960;3940.89743528;4306.15384630;4268.07692315;4208.71794865;4201.41025634;4270.76923084
4271.41025648;4236.15384616;4633.97435981;4271.41025648;4302.05128219;1811.66666153;-0.00000896;-0.00000896;3878.07692232;4502.05128261;3909.74358905;4304.48717963;4340.38461560;4206.66666660;4176.02564089;4270.76923084
4272.69230777;4206.15384609;4602.05128282;4272.82051289;4238.20512821;1870.89743090;-0.00000896;-0.00000896;3880.12820437;4466.53846203;3945.64102502;4306.41025655;4334.23076944;4235.76923077;4176.02564089;4270.76923084
4272.56410264;4202.82051275;3976.15384560;4272.17948725;3880.64102488;1906.28204635;-0.00000896;-0.00000896;3906.79487110;4434.74359016;3872.82051206;4303.97435912;3907.94871726;4208.58974352;4175.64102551;4270.76923084
4272.17948725;4202.82051275;4435.25641068;4271.53846161;4140.51282031;1911.28204635;-0.00000896;-0.00000896;3912.30769162;4402.43589779;3875.76923001;4306.66666681;4437.17948760;4236.41025641;4176.02564089;4270.76923084
4268.84615392;4204.23076917;4205.51282045;4269.48717956;3977.05128150;1903.84614892;-0.00000896;-0.00000896;3940.89743528;4397.94871830;3779.10256313;4305.64102578;4076.41025607;4209.10256404;4175.64102551;4270.76923084
4266.92307700;4206.15384609;4240.38461539;4268.58974366;4206.66666660;1876.41025141;-0.00000896;-0.00000896;3944.35897374;4370.76923105;3847.94871712;4305.76923091;4300.51282066;4233.97435898;4176.15384602;4270.76923084
4239.74358975;4207.05128199;4371.92307720;4270.12820520;4274.23076930;1874.99999500;-0.00000896;-0.00000896;3973.46153791;4368.07692336;3913.71794803;4306.15384630;4400.38461574;4208.46153840;4176.28205115;4237.94871795
4237.82051282;4233.84615385;3906.53846085;4272.69230777;3972.30769176;1911.02563610;-0.00000896;-0.00000896;3971.66666611;4372.43589772;3911.15384546;4302.17948732;3879.35897360;4234.87179488;4175.89743576;4237.94871795
4238.58974359;4239.10256411;4304.35897450;4302.05128219;4239.23076923;1974.48717470;-0.00000896;-0.00000896;3908.46153777;4370.12820541;3875.51281975;4304.87179501;4372.17948746;4208.71794865;4201.15384609;4237.94871795
4268.20512828;4271.15384623;4040.89743548;4303.58974373;4073.33333299;2005.64102092;-0.00000896;-0.00000896;3843.33333250;4372.56410285;3941.28205066;4305.12820527;4175.12820499;4235.00000000;4201.66666660;4270.76923084
4299.87179501;4302.82051296;4171.15384602;4273.84615392;4072.05128171;2003.97435425;-0.00000896;-0.00000896;3807.56410166;4402.69230804;4074.74358940;4305.38461553;4140.89743569;4235.25641026;4176.02564089;4303.58974373
4302.69230784;4307.56410271;4239.61538462;4269.48717956;4306.79487194;2008.33332861;-0.00000896;-0.00000896;3809.99999910;4435.51282093;4075.76923043;4303.71794886;4305.00000014;4236.15384616;4201.53846147;4303.58974373
4335.51282073;4337.69230790;4073.20512786;4241.79487180;3708.97435787;1974.23076444;-0.00000896;-0.00000896;3813.46153756;4438.58974401;4103.20512793;4305.51282066;3907.56410187;4235.00000000;4202.69230763;4336.41025662
4368.20512849;4365.51282079;4274.74358982;4238.46153847;4303.71794886;1974.35896957;-0.00000896;-0.00000896;3845.76922994;4471.66666716;4006.02564054;4306.41025655;4103.20512793;4236.79487180;4202.82051275;4369.23076951
4401.92307727;4366.66666695;4368.71794900;4237.17948718;4235.12820513;1973.33332854;-0.00000896;-0.00000896;3873.20512744;4503.20512876;4201.92307686;4305.64102578;4206.53846147;4237.82051282;4203.07692301;4402.05128240
4432.17948760;4368.07692336;4332.43589765;4236.66666667;4168.97435884;1971.28204649;-0.00000896;-0.00000896;3879.99999924;4536.41025704;4370.51282079;4304.23076937;4301.53846168;4237.56410257;4202.05128199;4434.87179529
4437.05128247;4366.02564131;4201.15384609;4208.71794865;4272.56410264;1972.69230290;-0.00000896;-0.00000896;3942.69230707;4564.10256480;4332.82051303;4303.97435912;4108.71794844;4237.30769231;4202.82051275;4434.87179529
4464.61538511;4337.05128226;3649.23076798;4206.66666660;3709.23076812;2002.30768759;229.99999153;-0.00000896;3974.35897381;4569.23076993;4470.76923126;4302.05128219;3683.33333216;4236.02564103;4204.10256404;4467.69230818
4465.64102613;4334.48717970;4271.28205136;4201.79487173;4204.23076917;2003.46153374;4.35896540;-0.00000896;3979.10256355;4595.51282128;4269.87179495;4302.30769245;4371.53846182;4236.53846154;4203.58974352;4467.69230818
4464.61538511;4306.92307707;4235.00000000;4176.02564089;3973.71794817;1971.28204649;-0.00000896;-0.00000896;4005.76923029;4569.74359044;4305.12820527;4301.79487194;4008.71794824;4237.30769231;4203.84615378;4467.56410305
4437.17948760;4305.12820527;4103.97435870;4172.05128192;4169.99999986;1944.10255924;35.12819624;-0.00000896;3977.17948663;4597.94871872;4070.12820478;4305.38461553;4207.69230763;4236.53846154;4203.58974352;4434.74359016
4433.07692350;4305.12820527;3846.79487096;4170.64102551;3681.28205010;2036.66666201;229.99999153;-0.00000896;3973.46153791;4569.48718019;4501.66666723;4305.38461553;3747.56410153;4236.53846154;4201.28205122;4434.74359016
4403.84615420;4305.12820527;4401.15384651;4141.15384595;4239.35897436;2073.71794414;229.99999153;-0.00000896;3945.12820451;4569.87179557;4436.02564145;4305.25641040;4241.41025641;4237.69230770;4204.35897429;4401.92307727
4400.89743625;4303.71794886;4399.87179522;4135.89743569;4108.97435870;2069.35896978;229.99999153;-0.00000896;3976.41025586;4565.76923147;4299.48717963;4303.46153860;4399.10256445;4237.56410257;4205.12820506;4401.92307727
4372.30769259;4300.12820527;4400.12820548;4104.48717921;4103.71794844;1972.30768752;229.99999153;-0.00000896;4006.53846106;4565.51282121;4175.76923063;4303.97435912;4110.51282024;4237.56410257;4204.99999993;4369.10256438
4365.64102592;4272.17948725;4269.35897443;4077.43589709;4102.56410229;2009.74358502;229.99999153;-0.00000896;3973.33333278;4564.74359044;4335.38461560;4302.56410271;4497.82051338;4238.58974359;4206.15384609;4369.10256438
4340.25641047;4271.66666674;3940.25640963;4077.05128171;4070.25640991;2009.35896964;229.99999153;-0.00000896;3941.92307630;4565.00000070;4172.69230756;4304.10256425;4005.76923029;4237.17948718;4205.38461532;4336.28205149
