Gyro-X;Gyro-Z;AF3;Gyro-Y;T7;Acc-X;Pz;QualityData_1;QualityData_2;Acc-Z;Acc-Y;T8;Mag-X;AF4;Mag-Z;Mag-Y;Mag-X;Gyro-X 
4203.97435891;4201.41025634;3874.48717873;4208.84615378;5126.79487367;2073.58973901;-0.00000896;-0.00000896;3484.99999841;4370.00000028;4763.58974471;4306.28205142;4896.02564242;4270.76923084;4203.20512814;4205.12820506
4203.97435891;4202.43589737;3353.20512633;4237.30769231;5317.17948948;2072.69230311;-0.00000896;-0.00000896;3484.87179328;4371.79487208;4793.46153965;4305.12820527;5123.20513009;4270.51282059;4202.43589737;4205.12820506
4204.35897429;4202.30769224;4827.17948843;4238.71794872;5089.87179668;2101.28204677;-0.00000896;-0.00000896;3486.28204969;4373.07692336;4759.35897547;4301.79487194;4501.28205184;4270.64102571;4201.15384609;4205.12820506
4202.94871788;4202.56410250;4857.82051414;4238.20512821;5390.51282295;2105.64102113;-0.00000896;-0.00000896;3486.28204969;4398.20512856;4630.76923161;4302.82051296;4632.43589827;4270.00000007;4202.43589737;4205.12820506
4202.43589737;4176.28205115;4044.61538420;4237.17948718;4961.28205281;2103.84614933;-0.00000896;-0.00000896;3511.79487027;4367.82051310;4728.20512925;4302.30769245;4663.20512911;4270.00000007;4201.28205122;4205.12820506
4175.38461525;4202.17948711;4042.43589702;4237.17948718;5191.79487381;2102.56409805;-0.00000896;-0.00000896;3513.84615232;4370.12820541;4037.43589702;4300.51282066;4825.64102690;4270.51282059;4202.56410250;4172.30769217
4202.05128199;4202.94871788;3546.28204983;4237.43589744;5417.56410507;2069.99999542;-0.00000896;-0.00000896;3487.05128046;4371.28205156;4302.69230784;4304.48717963;5092.82051463;4273.58974366;4204.10256404;4205.12820506
4175.64102551;4202.30769224;3355.25640838;4241.41025641;5023.20512988;2102.05127754;-0.00000896;-0.00000896;3484.99999841;4370.25641054;4630.38461622;4303.58974373;4963.07692461;4270.25641033;4202.43589737;4172.30769217
4175.89743576;4202.17948711;4792.17948836;4241.15384616;5060.38461713;2105.64102113;-0.00000896;-0.00000896;3483.46153687;4369.35897464;4857.56410389;4303.46153860;4863.46153979;4268.07692315;4202.17948711;4172.30769217
4176.15384602;4202.56410250;4504.35897492;4240.64102564;5257.69230985;2106.02563651;229.99999153;-0.00000896;3483.20512661;4368.71794900;4565.00000070;4303.20512835;4398.97435933;4268.97435905;4202.17948711;4172.30769217
4175.64102551;4201.66666660;4863.71795004;4238.97435898;5223.07692517;2103.58973908;-0.00000896;-0.00000896;3483.33333174;4399.61538497;4832.56410382;4303.20512835;4531.92307755;4267.56410264;4202.43589737;4172.30769217
4174.74358961;4175.76923063;3681.53846036;4237.69230770;5025.76923244;2105.76922626;3.33332437;-0.00000896;3482.30769071;4371.79487208;4169.99999986;4302.56410271;4729.48718053;4270.64102571;4202.69230763;4172.30769217
4176.02564089;4176.15384602;3611.15384484;4237.69230770;5456.28205386;2138.71794427;-0.00000896;-0.00000896;3482.69230610;4370.25641054;4241.92307693;4302.69230784;5061.15384789;4271.53846161;4202.17948711;4172.30769217
4201.28205122;4202.43589737;4004.10256362;4238.20512821;5318.97436127;2105.12820062;229.99999153;-0.00000896;3481.41025482;4368.71794900;4405.25641061;4301.41025655;5158.58974554;4269.48717956;4203.20512814;4205.12820506
4202.94871788;4204.61538455;3938.58974297;4237.56410257;5125.00000188;2102.43589292;229.99999153;-0.00000896;3480.51281892;4370.51282079;4829.35897561;4303.84615399;4963.20512974;4270.00000007;4203.07692301;4205.12820506
4204.10256404;4203.33333327;4398.07692343;4237.05128206;4957.30769384;2101.41025190;229.99999153;-0.00000896;3482.17948559;4400.12820548;4930.64102710;4305.25641040;4499.35897492;4269.61538469;4201.53846147;4205.12820506
4204.23076917;4201.79487173;5186.15384817;4235.89743590;5220.51282260;2106.02563651;229.99999153;-0.00000896;3480.12820353;4371.02564131;4700.38461636;4303.07692322;4765.76923188;4269.87179495;4202.82051275;4205.12820506
4204.61538455;4202.05128199;3284.35897235;4235.12820513;4831.02564228;2103.20512369;229.99999153;-0.00000896;3481.66666507;4399.61538497;4503.20512876;4301.79487194;4859.74359107;4270.00000007;4203.58974352;4205.12820506
4205.38461532;4202.82051275;4239.35897436;4236.66666667;5256.79487395;2105.12820062;229.99999153;-0.00000896;3481.66666507;4371.92307720;4405.89743625;4303.46153860;4824.87179613;4269.61538469;4202.69230763;4205.12820506
4205.76923070;4204.10256404;3519.87179335;4235.00000000;5221.02564311;2108.20512369;229.99999153;-0.00000896;3450.51281885;4371.28205156;4727.43589848;4303.46153860;5061.92307866;4269.74358982;4202.56410250;4205.12820506
4207.05128199;4203.71794865;4824.74359100;4234.61538462;5159.23077118;2101.79486728;229.99999153;-0.00000896;3451.28204962;4398.46153881;4701.41025739;4302.30769245;3944.99999938;4272.05128212;4205.38461532;4205.12820506
4208.84615378;4204.74358968;3845.12820430;4208.97435891;5160.51282246;2100.51281600;229.99999153;-0.00000896;3453.84615218;4399.61538497;4568.33333403;4301.79487194;5023.46154013;4271.53846161;4202.17948711;4205.12820506
4235.51282052;4202.56410250;3840.25640943;4208.84615378;4926.28205275;2072.43589285;229.99999153;-0.00000896;3482.94871635;4372.94871823;4467.30769280;4301.53846168;4732.43589848;4271.53846161;4202.94871788;4237.94871795
4234.61538462;4202.30769224;3585.12820374;4207.82051275;5386.28205372;2072.69230311;229.99999153;-0.00000896;3484.48717789;4372.30769259;4137.56410236;4303.46153860;4863.97436030;4269.87179495;4202.69230763;4237.94871795
4234.48717949;4202.05128199;3709.87179376;4208.97435891;5127.69230957;2075.76922619;229.99999153;-0.00000896;3512.43589591;4371.02564131;5026.41025808;4300.64102578;5122.69230957;4270.00000007;4202.43589737;4237.94871795
4207.30769224;4201.28205122;4661.66666757;4208.58974352;5127.05128393;2103.33332882;229.99999153;-0.00000896;3514.35897283;4398.07692343;4630.64102648;4303.20512835;3979.23076868;4270.12820520;4202.56410250;4205.12820506
4207.05128199;4176.02564089;4930.51282198;4208.46153840;5121.15384803;2075.38461080;229.99999153;-0.00000896;3514.35897283;4366.15384644;4763.58974471;4301.41025655;4562.82051352;4269.87179495;4203.71794865;4205.12820506
4204.74358968;4201.79487173;3649.48717824;4236.15384616;5218.97436106;2103.07691856;229.99999153;-0.00000896;3512.30769078;4367.69230797;4176.28205115;4304.10256425;4956.66666820;4270.89743597;4202.43589737;4205.12820506
4203.71794865;4202.82051275;4040.51282010;4236.02564103;5127.94871983;2104.61538010;229.99999153;-0.00000896;3486.41025482;4370.76923105;4633.20512904;4302.56410271;4628.33333417;4271.02564110;4202.05128199;4205.12820506
4204.35897429;4203.07692301;3745.51281947;4236.41025641;5190.89743792;2103.84614933;229.99999153;-0.00000896;3484.23076764;4368.71794900;4431.02564145;4301.53846168;4894.10256550;4269.23076930;4202.17948711;4205.12820506
4203.97435891;4202.69230763;4660.51282142;4234.23076923;5251.66666882;2102.56409805;229.99999153;-0.00000896;3485.51281892;4398.33333368;4697.82051380;4302.94871809;4174.48717935;4270.25641033;4201.66666660;4205.12820506
4204.99999993;4201.15384609;4235.51282052;4234.10256411;5092.30769412;2101.53845703;229.99999153;-0.00000896;3513.33333181;4369.10256438;4530.25641089;4303.33333348;4661.15384706;4269.23076930;4202.82051275;4205.12820506
4203.97435891;4201.53846147;3845.76922994;4236.28205129;5190.89743792;2101.92307241;229.99999153;-0.00000896;3514.10256258;4367.94871823;4433.07692350;4301.28205142;4602.30769308;4269.23076930;4202.82051275;4205.12820506
4203.58974352;4175.64102551;3907.56410187;4237.30769231;5059.23077097;2104.87179036;229.99999153;-0.00000896;3513.84615232;4368.71794900;4502.69230825;4303.97435912;4996.28205288;4268.20512828;4204.48717942;4205.12820506
4203.33333327;4201.53846147;3813.58974269;4236.79487180;5058.07692482;2103.20512369;229.99999153;-0.00000896;3512.56410104;4369.10256438;4471.28205177;4301.41025655;4666.41025732;4267.05128212;4202.17948711;4205.12820506
4203.71794865;4202.56410250;4271.15384623;4238.71794872;5286.02564325;2104.23076472;229.99999153;-0.00000896;3487.05128046;4372.17948746;4892.43589883;4301.53846168;4497.43589800;4269.35897443;4204.61538455;4205.12820506
4203.33333327;4202.05128199;4563.33333403;4238.58974359;4927.43589890;2102.82050831;229.99999153;-0.00000896;3483.71794712;4366.41025669;4471.53846203;4304.74358989;4892.17948857;4267.94871802;4202.30769224;4205.12820506
4202.43589737;4201.92307686;4171.02564089;4240.25641026;5087.56410437;2104.74358523;229.99999153;-0.00000896;3481.28204969;4368.20512849;4531.66666730;4302.05128219;4305.64102578;4270.25641033;4202.56410250;4205.12820506
4203.58974352;4201.66666660;4207.43589737;4239.87179488;5062.17948892;2103.07691856;229.99999153;-0.00000896;3454.23076757;4340.25641047;4531.15384678;4303.33333348;5252.17948934;4270.76923084;4202.43589737;4205.12820506
4203.33333327;4203.33333327;3647.69230645;4238.33333334;4992.05128365;2105.64102113;229.99999153;-0.00000896;3479.48717789;4373.20512849;4274.61538469;4303.46153860;4763.20512932;4270.76923084;4202.82051275;4205.12820506
4202.94871788;4202.17948711;4332.30769252;4237.82051282;5319.10256640;2107.43589292;229.99999153;-0.00000896;3450.89743423;4366.53846182;4956.66666820;4299.87179501;4731.66666771;4269.87179495;4202.05128199;4205.12820506
4202.94871788;4203.97435891;4628.97435981;4233.97435898;4956.41025794;2106.28204677;229.99999153;-0.00000896;3448.71794705;4367.30769259;4465.64102613;4303.33333348;4896.53846293;4270.89743597;4202.82051275;4205.12820506
4203.46153840;4204.61538455;4299.74358989;4207.17948711;5120.25641214;2073.46153388;229.99999153;-0.00000896;3448.20512654;4370.00000028;4832.69230895;4302.82051296;4365.51282079;4271.28205136;4205.12820506;4205.12820506
4203.84615378;4203.71794865;4240.00000000;4206.15384609;5057.69230943;2074.99999542;229.99999153;-0.00000896;3450.76922911;4367.82051310;4202.30769224;4300.51282066;4893.58974498;4270.25641033;4202.43589737;4205.12820506
4205.76923070;4202.69230763;3650.38461414;4207.17948711;4989.48718109;2102.94871344;229.99999153;-0.00000896;3452.43589577;4400.12820548;4497.17948774;4301.79487194;4730.38461643;4268.97435905;4201.79487173;4205.12820506
4205.89743583;4204.61538455;4665.12820604;4207.17948711;5448.84615642;2105.51281600;229.99999153;-0.00000896;3478.97435738;4368.84615413;4955.89743743;4300.76923091;4567.05128275;4270.51282059;4202.56410250;4205.12820506
4206.41025634;4204.10256404;4141.53846133;4208.46153840;5055.89743764;2102.30768779;-0.00000896;-0.00000896;3479.35897276;4367.43589772;4464.10256459;4303.71794886;4600.12820590;4269.87179495;4204.87179481;4205.12820506
4206.28205122;4203.58974352;4858.07692440;4207.05128199;5291.79487402;2074.87179029;-0.00000896;-0.00000896;3483.20512661;4371.28205156;4437.17948760;4302.56410271;4663.84615475;4270.00000007;4202.82051275;4205.12820506
4206.41025634;4203.97435891;3946.53846092;4207.69230763;5186.02564304;2075.38461080;229.99999153;-0.00000896;3485.51281892;4366.41025669;4103.33333306;4304.48717963;4597.17948795;4267.82051289;4202.82051275;4205.12820506
4206.28205122;4204.35897429;3512.56410104;4207.69230763;5091.53846335;2107.05127754;-0.00000896;-0.00000896;3484.74358815;4368.97435926;4467.69230818;4301.92307707;5154.23077118;4270.38461546;4202.30769224;4205.12820506
4206.02564096;4203.71794865;4142.05128185;4207.30769224;4963.58974512;2104.35896985;-0.00000896;-0.00000896;3512.30769078;4398.20512856;4630.38461622;4302.05128219;4564.10256480;4269.61538469;4202.43589737;4205.12820506
4204.61538455;4205.64102558;4077.82051248;4208.58974352;5122.17948906;2101.66666215;-0.00000896;-0.00000896;3512.94871642;4371.53846182;4498.84615441;4299.87179501;4372.56410285;4268.84615392;4202.43589737;4205.12820506
4204.10256404;4204.48717942;4595.38461615;4208.97435891;5088.20513002;2072.17948260;-0.00000896;-0.00000896;3514.10256258;4400.51282086;4860.12820645;4300.76923091;4503.46153902;4267.82051289;4202.69230763;4205.12820506
4204.61538455;4203.33333327;4071.92307658;4235.64102564;5191.92307894;2102.43589292;-0.00000896;-0.00000896;3511.92307540;4400.89743625;4333.84615406;4302.56410271;4369.74359003;4267.94871802;4204.35897429;4205.12820506
4204.48717942;4204.35897429;3648.84615260;4235.89743590;5157.05128400;2102.43589292;-0.00000896;-0.00000896;3483.97435738;4370.00000028;4464.35897485;4302.30769245;5092.94871976;4269.74358982;4202.82051275;4205.12820506
4205.12820506;4203.71794865;4208.20512814;4236.02564103;4894.87179627;2105.76922626;-0.00000896;-0.00000896;3484.35897276;4371.79487208;4336.15384637;4304.87179501;4602.05128282;4268.20512828;4201.53846147;4205.12820506
4205.25641019;4203.07692301;4044.10256369;4234.23076923;5192.43589945;2107.17948267;-0.00000896;-0.00000896;3486.53845994;4368.33333362;4529.23076986;4303.84615399;4893.07692447;4268.20512828;4202.82051275;4205.12820506
4204.48717942;4203.58974352;4205.25641019;4234.23076923;5057.56410431;2104.35896985;-0.00000896;-0.00000896;3512.30769078;4370.64102592;4661.53846245;4301.66666681;4307.43589758;4268.46153853;4202.94871788;4205.12820506
4205.38461532;4203.07692301;4927.69230916;4208.84615378;4992.82051442;2103.07691856;-0.00000896;-0.00000896;3512.30769078;4400.38461574;4667.69230860;4303.07692322;4794.48718067;4267.43589751;4202.94871788;4205.12820506
4204.99999993;4204.87179481;3680.76922959;4236.41025641;5062.43589918;2075.12820055;-0.00000896;-0.00000896;3484.74358815;4400.64102599;4531.79487242;4301.53846168;4470.51282100;4270.12820520;4202.94871788;4205.12820506
4206.53846147;4204.10256404;3941.79487117;4237.05128206;4957.69230922;2103.33332882;-0.00000896;-0.00000896;3481.92307533;4403.58974394;4366.15384644;4304.48717963;4663.97435988;4268.71794879;4202.43589737;4205.12820506
4207.17948711;4203.20512814;4038.07692266;4236.02564103;5316.92307922;2105.76922626;-0.00000896;-0.00000896;3482.30769071;4400.38461574;4042.30769189;4302.82051296;4762.05128317;4269.87179495;4203.71794865;4205.12820506
4206.41025634;4202.05128199;3746.53846050;4235.00000000;5286.53846377;2104.23076472;-0.00000896;-0.00000896;3483.20512661;4401.66666702;4501.92307748;4303.07692322;5092.30769412;4267.82051289;4202.69230763;4205.12820506
4206.79487173;4201.53846147;4563.07692378;4234.23076923;5088.20513002;2074.48717490;-0.00000896;-0.00000896;3512.17948565;4399.48717984;4996.41025801;4303.07692322;4333.71794893;4269.61538469;4202.69230763;4205.12820506
4206.15384609;4176.02564089;4764.23077035;4235.12820513;5028.97436065;2102.43589292;-0.00000896;-0.00000896;3512.82051130;4402.30769266;4332.43589765;4300.12820527;4433.84615427;4269.10256418;4202.30769224;4205.12820506
4205.89743583;4202.05128199;3813.33333243;4236.02564103;5288.58974582;2103.84614933;-0.00000896;-0.00000896;3512.43589591;4373.07692336;4373.07692336;4303.58974373;4729.87179592;4268.33333341;4202.43589737;4205.12820506
4205.38461532;4202.94871788;4042.17948677;4236.66666667;5090.12820694;2101.53845703;-0.00000896;-0.00000896;3513.33333181;4371.79487208;4138.33333313;4301.15384630;4665.25641116;4267.94871802;4176.02564089;4205.12820506
4203.84615378;4203.20512814;3290.12820312;4236.41025641;5123.71795060;2103.58973908;-0.00000896;-0.00000896;3486.28204969;4369.23076951;4599.48718026;4302.94871809;4963.46153999;4269.61538469;4202.69230763;4205.12820506
4204.23076917;4202.17948711;4863.33333466;4235.25641026;4959.61538615;2101.41025190;-0.00000896;-0.00000896;3512.17948565;4368.71794900;4631.28205212;4303.71794886;4270.76923084;4268.84615392;4202.56410250;4205.12820506
4203.20512814;4176.28205115;4567.56410326;4208.71794865;5252.17948934;2103.07691856;-0.00000896;-0.00000896;3511.79487027;4398.58974394;4499.61538518;4301.92307707;4563.07692378;4268.46153853;4202.56410250;4205.12820506
4202.56410250;4202.05128199;4042.30769189;4235.00000000;4958.71795025;2074.48717490;-0.00000896;-0.00000896;3486.53845994;4371.41025669;4563.58974429;4302.94871809;4667.82051373;4270.51282059;4202.56410250;4205.12820506
4204.10256404;4202.69230763;4006.41025593;4234.74358975;5160.25641221;2075.12820055;-0.00000896;-0.00000896;3485.64102405;4372.17948746;3976.66666611;4301.79487194;4694.61538559;4267.43589751;4202.82051275;4205.12820506
4203.97435891;4202.56410250;3519.10256258;4236.79487180;5029.23077090;2101.92307241;-0.00000896;-0.00000896;3485.89743430;4400.00000035;4597.94871872;4303.58974373;5252.82051498;4269.35897443;4201.02564096;4205.12820506
4205.38461532;4202.43589737;4531.15384678;4238.07692308;5021.66666834;2075.12820055;-0.00000896;-0.00000896;3485.64102405;4371.02564131;4501.53846210;4301.15384630;4268.20512828;4271.66666674;4203.07692301;4205.12820506
4205.12820506;4201.28205122;4469.10256459;4237.94871795;5088.84615566;2101.02563651;229.99999153;-0.00000896;3486.53845994;4404.10256445;4501.79487235;4302.82051296;4730.38461643;4269.87179495;4202.94871788;4205.12820506
4204.87179481;4175.76923063;4367.43589772;4237.05128206;5221.28205337;2106.28204677;229.99999153;-0.00000896;3514.35897283;4368.20512849;4168.46153833;4302.56410271;4565.12820583;4268.71794879;4202.69230763;4205.12820506
4204.87179481;4202.05128199;3940.89743528;4234.61538462;5222.56410465;2106.92307241;229.99999153;-0.00000896;3512.69230617;4368.71794900;4401.41025676;4302.05128219;4470.12820562;4268.58974366;4202.56410250;4205.12820506
4203.07692301;4202.30769224;3611.53846022;4235.12820513;5022.82051449;2101.66666215;229.99999153;-0.00000896;3484.99999841;4368.07692336;4300.00000014;4301.28205142;5124.35897624;4269.35897443;4203.71794865;4205.12820506
4204.35897429;4203.33333327;4073.33333299;4235.76923077;4996.02564263;2101.28204677;0.38460642;-0.00000896;3483.84615225;4371.53846182;4367.82051310;4305.00000014;4531.92307755;4269.35897443;4202.30769224;4205.12820506
4205.25641019;4203.20512814;4566.66666737;4236.41025641;5156.79487374;2075.64102106;-0.00000896;-0.00000896;3482.56410097;4366.66666695;4891.02564242;4301.79487194;4499.10256466;4269.35897443;4202.94871788;4205.12820506
4206.28205122;4201.02564096;4039.10256369;4235.38461539;4963.71795025;2102.82050831;229.99999153;-0.00000896;3483.46153687;4372.82051310;4334.87179508;4302.30769245;4431.02564145;4271.15384623;4202.69230763;4205.12820506
4206.53846147;4202.17948711;5022.56410424;4236.41025641;5022.17948885;2104.35896985;-0.00000896;-0.00000896;3486.02563943;4368.07692336;4766.79487291;4301.92307707;4338.58974380;4269.61538469;4202.30769224;4205.12820506
4206.79487173;4202.17948711;3582.05128067;4209.10256404;4989.48718109;2104.74358523;229.99999153;-0.00000896;3486.79487020;4367.05128233;4011.41025593;4302.82051296;4759.23077035;4269.10256418;4202.43589737;4205.12820506
4205.12820506;4203.46153840;3815.12820423;4235.64102564;5321.41025871;2101.53845703;-0.00000896;-0.00000896;3513.58974206;4367.56410285;4203.97435891;4303.46153860;4796.02564221;4270.12820520;4202.43589737;4205.12820506
4204.99999993;4203.71794865;3977.43589688;4235.00000000;5123.20513009;2100.76922626;229.99999153;-0.00000896;3486.41025482;4372.69230797;4536.15384678;4303.20512835;4500.76923133;4269.10256418;4202.43589737;4205.12820506
4205.76923070;4204.10256404;3581.41025502;4234.87179488;5029.48718116;2106.02563651;-0.00000896;-0.00000896;3482.82051123;4372.94871823;4503.33333389;4301.02564117;4890.25641165;4269.23076930;4202.94871788;4205.12820506
4204.87179481;4204.61538455;5091.15384796;4208.97435891;4993.07692468;2135.76922633;229.99999153;-0.00000896;3481.28204969;4368.84615413;4632.30769315;4300.00000014;4039.23076882;4271.53846161;4202.30769224;4205.12820506
4205.89743583;4203.84615378;3647.56410132;4204.74358968;5092.05128386;2102.17948267;-0.00000896;-0.00000896;3485.25640866;4400.12820548;4041.41025600;4302.94871809;4825.89743715;4271.41025648;4202.05128199;4205.12820506
4204.35897429;4204.48717942;3808.33333243;4204.10256404;5356.41025878;2072.17948260;229.99999153;-0.00000896;3514.74358822;4372.43589772;4073.46153812;4301.02564117;4894.74359114;4268.84615392;4202.94871788;4205.12820506
4203.84615378;4203.20512814;3841.02564020;4204.61538455;5093.46154027;2069.23076465;-0.00000896;-0.00000896;3513.33333181;4373.07692336;4273.71794879;4302.30769245;4335.25641047;4269.10256418;4201.92307686;4205.12820506
4204.61538455;4202.69230763;3908.20512751;4207.30769224;4958.07692461;2069.61538003;229.99999153;-0.00000896;3486.28204969;4399.48717984;4469.48717998;4299.48717963;4667.05128296;4269.35897443;4202.30769224;4205.12820506
4205.38461532;4203.07692301;5061.66666841;4235.12820513;5322.05128435;2072.30768773;-0.00000896;-0.00000896;3482.69230610;4401.66666702;4466.28205177;4303.71794886;3938.71794810;4271.15384623;4202.43589737;4205.12820506
4206.41025634;4202.69230763;3748.46153742;4237.30769231;4991.92307853;2104.10255959;229.99999153;-0.00000896;3483.46153687;4399.35897471;4008.58974311;4301.66666681;4699.48718046;4270.00000007;4205.51282045;4205.12820506
4206.28205122;4202.82051275;3876.53846078;4236.28205129;5191.79487381;2105.76922626;-0.00000896;-0.00000896;3483.97435738;4371.15384644;4110.12820485;4303.71794886;4701.28205226;4269.48717956;4202.56410250;4205.12820506
4205.89743583;4202.17948711;3808.97435807;4234.10256411;4960.00000153;2100.51281600;229.99999153;-0.00000896;3512.82051130;4367.30769259;4335.51282073;4301.66666681;4470.25641075;4268.97435905;4202.43589737;4205.12820506
4203.71794865;4202.43589737;3808.84615295;4234.23076923;4961.92307846;2100.51281600;-0.00000896;-0.00000896;3514.35897283;4399.10256445;4565.76923147;4302.82051296;5219.61538670;4268.84615392;4202.94871788;4205.12820506
4203.84615378;4202.05128199;4496.41025697;4234.87179488;5056.92307866;2073.33332875;229.99999153;-0.00000896;3486.53845994;4401.92307727;4469.35897485;4301.28205142;4143.20512800;4269.87179495;4202.05128199;4205.12820506
4204.35897429;4202.82051275;4598.71794949;4235.76923077;5091.02564284;2104.87179036;-0.00000896;-0.00000896;3482.69230610;4399.23076958;4662.56410347;4304.87179501;4438.58974401;4270.76923084;4202.43589737;4205.12820506
4204.10256404;4203.20512814;3715.12820402;4235.76923077;5029.35897603;2103.84614933;229.99999153;-0.00000896;3481.66666507;4370.25641054;4234.35897436;4301.15384630;4500.38461594;4269.61538469;4203.20512814;4205.12820506
4205.25641019;4203.33333327;3907.82051213;4235.25641026;5158.07692503;2102.82050831;-0.00000896;-0.00000896;3486.02563943;4372.05128233;4136.79487159;4302.43589758;4827.05128331;4270.51282059;4203.46153840;4205.12820506
4206.53846147;4202.17948711;3616.53846022;4236.15384616;5059.61538636;2103.07691856;229.99999153;-0.00000896;3512.94871642;4369.87179515;4337.56410278;4303.20512835;4893.07692447;4269.35897443;4202.43589737;4205.12820506
4206.28205122;4201.41025634;5023.20512988;4236.02564103;5057.43589918;2106.15384164;-0.00000896;-0.00000896;3513.33333181;4366.92307720;4598.07692385;4300.64102578;4173.97435884;4270.76923084;4202.43589737;4205.12820506
4206.02564096;4202.05128199;4267.43589751;4236.28205129;5223.84615593;2104.74358523;229.99999153;-0.00000896;3486.53845994;4368.97435926;4365.38461567;4300.76923091;4170.51282038;4268.84615392;4202.69230763;4205.12820506
4206.02564096;4203.58974352;4535.25641089;4236.92307693;5157.56410451;2073.33332875;-0.00000896;-0.00000896;3486.66666507;4372.17948746;4465.25641075;4301.02564117;4469.74359023;4269.87179495;4204.74358968;4205.12820506
4206.66666660;4203.46153840;4008.07692259;4236.66666667;5089.74359155;2105.76922626;229.99999153;-0.00000896;3486.28204969;4399.10256445;4103.71794844;4301.41025655;4863.84615517;4269.87179495;4202.30769224;4205.12820506
4205.89743583;4203.84615378;4274.74358982;4236.15384616;5192.69230971;2107.30768779;-0.00000896;-0.00000896;3485.89743430;4369.35897464;4497.05128261;4302.69230784;4403.58974394;4272.05128212;4202.43589737;4205.12820506
4206.15384609;4202.69230763;4663.46153937;4235.00000000;5025.51282218;2105.25640574;229.99999153;-0.00000896;3512.43589591;4367.69230797;4529.61538524;4300.64102578;4470.25641075;4268.71794879;4202.56410250;4205.12820506
4207.82051275;4203.46153840;3905.89743521;4236.15384616;5259.23077139;2101.66666215;-0.00000896;-0.00000896;3487.05128046;4370.64102592;4138.33333313;4302.30769245;4568.33333403;4270.76923084;4202.82051275;4205.12820506
4207.56410250;4203.71794865;3748.33333229;4237.56410257;5185.64102766;2101.41025190;-0.00000896;-0.00000896;3484.61538302;4370.25641054;4660.64102655;4304.48717963;4268.20512828;4269.61538469;4202.69230763;4205.12820506
4206.66666660;4204.74358968;4172.56410243;4238.07692308;5190.00000202;2101.92307241;8239.87180335;-0.00000896;3483.84615225;4371.15384644;4334.87179508;4302.30769245;4923.46153992;4271.02564110;4202.69230763;4205.12820506
4206.79487173;4204.35897429;3813.46153756;4237.94871795;5121.41025829;2075.64102106;229.99999153;-0.00000896;3484.35897276;4373.20512849;4300.64102578;4301.53846168;4403.46153881;4270.64102571;4202.82051275;4205.12820506
4206.41025634;4203.97435891;4601.79487256;4237.05128206;4990.12820673;2075.64102106;229.99999153;-0.00000896;3486.02563943;4398.20512856;4863.07692440;4305.51282066;4339.74358996;4268.84615392;4202.69230763;4205.12820506
4205.51282045;4203.07692301;4170.76923063;4235.00000000;4826.79487305;2100.51281600;229.99999153;-0.00000896;3484.99999841;4373.07692336;4206.15384609;4303.84615399;4633.97435981;4268.71794879;4204.10256404;4205.12820506
4204.74358968;4203.20512814;4366.41025669;4234.35897436;4863.58974491;2074.74358516;229.99999153;-0.00000896;3485.51281892;4400.12820548;4663.84615475;4303.20512835;4333.46153867;4269.23076930;4202.69230763;4205.12820506
4204.74358968;4203.58974352;3906.53846085;4235.51282052;5089.74359155;2075.76922619;-0.00000896;-0.00000896;3486.92307533;4367.94871823;4071.92307658;4303.84615399;4733.33333438;4271.41025648;4202.69230763;4205.12820506
4205.25641019;4201.79487173;3714.74358864;4234.23076923;5254.61538677;2072.05127747;-0.00000896;-0.00000896;3487.05128046;4370.76923105;4103.71794844;4301.66666681;4693.97435995;4268.97435905;4202.56410250;4205.12820506
4203.97435891;4202.05128199;3909.87179418;4236.28205129;5025.25641193;2071.53845696;-0.00000896;-0.00000896;3511.92307540;4370.76923105;4700.12820610;4304.10256425;4466.15384664;4268.07692315;4176.02564089;4205.12820506
4202.94871788;4201.28205122;4434.74359016;4235.51282052;5220.00000209;2102.17948267;-0.00000896;-0.00000896;3512.43589591;4398.58974394;4337.82051303;4302.43589758;4431.66666709;4270.12820520;4202.43589737;4205.12820506
4205.64102558;4201.66666660;4696.15384713;4234.35897436;5156.66666862;2103.84614933;-0.00000896;-0.00000896;3512.43589591;4397.94871830;4438.71794914;4300.25641040;4334.87179508;4268.46153853;4201.02564096;4205.12820506
4203.07692301;4201.92307686;4530.89743653;4235.76923077;5090.64102745;2108.46153395;-0.00000896;-0.00000896;3512.17948565;4371.41025669;4272.05128212;4303.71794886;4602.56410333;4269.48717956;4202.56410250;4205.12820506
4203.97435891;4202.82051275;3187.94871573;4235.00000000;5124.74359162;2105.12820062;-0.00000896;-0.00000896;3513.84615232;4368.71794900;4332.69230790;4303.84615399;5092.94871976;4268.84615392;4174.61538448;4205.12820506
4203.97435891;4203.71794865;4865.38461671;4236.28205129;4860.12820645;2101.02563651;-0.00000896;-0.00000896;3513.20512668;4398.20512856;4563.71794942;4302.94871809;4436.15384657;4271.53846161;4202.30769224;4205.12820506
4204.10256404;4202.17948711;4205.64102558;4236.15384616;5156.28205323;2104.10255959;-0.00000896;-0.00000896;3484.35897276;4397.94871830;4436.28205170;4302.43589758;4531.66666730;4269.48717956;4202.17948711;4205.12820506
4205.25641019;4202.17948711;4962.69230922;4236.02564103;5189.87179689;2137.30768786;-0.00000896;-0.00000896;3484.10256251;4369.74359003;4467.82051331;4301.79487194;4371.53846182;4271.28205136;4203.20512814;4205.12820506
4206.02564096;4203.97435891;3583.20512682;4236.79487180;5256.92307908;2101.92307241;-0.00000896;-0.00000896;3512.05128053;4368.58974387;4241.15384616;4301.41025655;4666.53846245;4271.28205136;4202.43589737;4205.12820506
4205.51282045;4203.71794865;3781.66666570;4236.79487180;4859.74359107;2073.71794414;-0.00000896;-0.00000896;3513.71794719;4369.35897464;4271.02564110;4305.25641040;4694.10256508;4271.15384623;4202.30769224;4205.12820506
4205.89743583;4203.33333327;4141.02564082;4237.82051282;5225.12820722;2071.15384157;-0.00000896;-0.00000896;3513.46153694;4372.56410285;4142.43589723;4302.56410271;4564.48718019;4271.53846161;4202.69230763;4205.12820506
4205.76923070;4201.92307686;4368.07692336;4237.82051282;4994.61538622;2100.89743138;-0.00000896;-0.00000896;3511.92307540;4398.97435933;4436.92307734;4303.46153860;4536.53846217;4270.64102571;4203.46153840;4205.12820506
4206.28205122;4202.69230763;4695.38461636;4236.79487180;5061.79487354;2106.92307241;-0.00000896;-0.00000896;3482.69230610;4372.17948746;4501.79487235;4303.33333348;4174.99999986;4270.25641033;4202.43589737;4205.12820506
4206.53846147;4202.30769224;3778.97435801;4237.56410257;5126.28205316;2104.74358523;-0.00000896;-0.00000896;3481.02563943;4365.64102592;4171.66666653;4302.82051296;4924.74359121;4270.64102571;4204.23076917;4205.12820506
4206.15384609;4204.23076917;3877.30769155;4237.43589744;4894.35897575;2102.56409805;-0.00000896;-0.00000896;3481.28204969;4368.97435926;4174.99999986;4303.84615399;4399.61538497;4271.92307700;4202.69230763;4205.12820506
4204.48717942;4204.35897429;3975.38461483;4236.41025641;5253.58974575;2102.82050831;-0.00000896;-0.00000896;3482.82051123;4397.94871830;4108.33333306;4304.74358989;4897.05128344;4269.48717956;4201.15384609;4205.12820506
4205.89743583;4204.35897429;4069.87179453;4235.25641026;5156.02564298;2102.94871344;-0.00000896;-0.00000896;3482.82051123;4372.43589772;4435.51282093;4301.66666681;4536.92307755;4271.28205136;4203.07692301;4205.12820506
4205.64102558;4203.20512814;4398.20512856;4234.48717949;4996.28205288;2075.51281593;-0.00000896;-0.00000896;3482.30769071;4372.56410285;4629.10256494;4302.17948732;4432.17948760;4269.35897443;4202.82051275;4205.12820506
4205.51282045;4204.10256404;4960.25641179;4234.87179488;5123.33333521;2101.92307241;-0.00000896;-0.00000896;3483.07692148;4402.69230804;4400.12820548;4302.69230784;4270.76923084;4270.51282059;4202.82051275;4205.12820506
4205.51282045;4203.33333327;3481.02563943;4235.51282052;5288.97436120;2101.66666215;-0.00000896;-0.00000896;3484.23076764;4403.33333368;4138.20512800;4302.69230784;4795.12820631;4269.23076930;4202.56410250;4205.12820506
4205.89743583;4203.71794865;3880.76923001;4234.61538462;4994.74359135;2101.92307241;-0.00000896;-0.00000896;3485.51281892;4372.43589772;4339.23076944;4305.00000014;4464.61538511;4269.10256418;4204.23076917;4205.12820506
4205.25641019;4201.92307686;3713.20512710;4233.84615385;5028.46154013;2102.82050831;-0.00000896;-0.00000896;3485.25640866;4372.30769259;4503.20512876;4302.05128219;4828.58974484;4270.12820520;4202.43589737;4205.12820506
4204.61538455;4201.02564096;4896.02564242;4234.61538462;4992.69230929;2105.38461087;229.99999153;-0.00000896;3486.15384456;4367.43589772;4666.79487270;4301.53846168;4072.56410222;4269.48717956;4202.69230763;4205.12820506
4203.97435891;4201.28205122;4667.05128296;4234.23076923;5060.25641200;2104.99999549;-0.00000896;-0.00000896;3512.17948565;4368.58974387;4467.56410305;4304.23076937;4471.41025690;4270.25641033;4202.56410250;4205.12820506
4203.33333327;4201.66666660;3680.89743472;4234.10256411;5291.15384838;2105.64102113;-0.00000896;-0.00000896;3514.10256258;4369.48717977;4039.48717907;4300.12820527;4701.15384713;4271.15384623;4202.94871788;4205.12820506
4203.20512814;4203.20512814;4040.51282010;4234.74358975;4993.71795032;2102.43589292;-0.00000896;-0.00000896;3514.99999848;4398.33333368;4238.97435898;4303.71794886;4368.20512849;4270.25641033;4202.82051275;4205.12820506
4203.07692301;4201.53846147;3777.69230672;4235.89743590;5060.89743764;2102.56409805;229.99999153;-0.00000896;3483.97435738;4370.76923105;4143.46153826;4303.97435912;4958.97436051;4270.12820520;4202.69230763;4205.12820506
4204.74358968;4202.43589737;4401.66666702;4237.56410257;5225.00000209;2101.92307241;229.99999153;-0.00000896;3480.89743430;4371.92307720;4431.79487222;4300.64102578;3973.33333278;4271.79487187;4203.07692301;4205.12820506
4205.12820506;4203.07692301;4730.89743694;4237.56410257;4891.28205268;2103.84614933;229.99999153;-0.00000896;3481.92307533;4400.51282086;4500.76923133;4301.28205142;4502.43589800;4271.41025648;4202.56410250;4205.12820506
4206.28205122;4202.17948711;3612.69230638;4237.56410257;4996.15384776;2102.17948267;229.99999153;-0.00000896;3483.97435738;4398.46153881;4107.82051255;4301.28205142;4627.69230853;4270.25641033;4202.30769224;4205.12820506
4206.66666660;4201.92307686;3942.94871733;4236.92307693;5193.07692510;2103.97435446;229.99999153;-0.00000896;3486.92307533;4370.89743618;4037.56410215;4304.48717963;4764.48718060;4270.76923084;4202.56410250;4205.12820506
4205.38461532;4201.15384609;3873.84615309;4236.41025641;5087.43589925;2101.41025190;229.99999153;-0.00000896;3486.02563943;4368.84615413;4367.43589772;4302.56410271;4726.66666771;4271.41025648;4203.33333327;4205.12820506
4205.25641019;4202.69230763;4594.87179564;4235.64102564;4996.79487340;2072.30768773;229.99999153;-0.00000896;3483.20512661;4368.07692336;4601.92307769;4303.07692322;4077.69230735;4273.46153853;4203.07692301;4205.12820506
4205.76923070;4201.79487173;4961.92307846;4238.07692308;5120.00000188;2103.07691856;229.99999153;-0.00000896;3482.30769071;4371.92307720;4368.97435926;4304.48717963;4304.23076937;4270.89743597;4201.02564096;4205.12820506
4205.89743583;4203.07692301;3843.20512738;4237.17948718;4957.43589897;2106.66666215;229.99999153;-0.00000896;3479.99999841;4369.87179515;4464.61538511;4301.02564117;4565.64102634;4270.89743597;4202.94871788;4205.12820506
4205.51282045;4202.82051275;4140.89743569;4236.41025641;5322.82051512;2106.66666215;229.99999153;-0.00000896;3482.17948559;4368.71794900;3809.74358884;4302.17948732;4467.94871844;4271.79487187;4202.82051275;4205.12820506
4204.23076917;4203.71794865;3584.48717810;4234.74358975;4959.23077076;2103.84614933;229.99999153;-0.00000896;3484.35897276;4368.33333362;4398.58974394;4303.07692322;5088.20513002;4272.43589751;4202.56410250;4205.12820506
4202.69230763;4201.92307686;4664.87179578;4208.71794865;5185.89743792;2103.07691856;229.99999153;-0.00000896;3486.79487020;4338.97435919;4499.87179543;4301.15384630;4075.76923043;4270.12820520;4202.82051275;4205.12820506
4202.30769224;4202.56410250;4501.79487235;4208.71794865;5087.82051463;2073.84614926;229.99999153;-0.00000896;3485.51281892;4368.33333362;4335.51282073;4300.12820527;4565.89743660;4269.74358982;4202.05128199;4205.12820506
4202.30769224;4203.84615378;4270.38461546;4234.23076923;5257.43589959;2100.89743138;229.99999153;-0.00000896;3481.28204969;4371.53846182;4274.61538469;4305.12820527;4536.15384678;4270.25641033;4203.58974352;4205.12820506
4204.23076917;4203.71794865;4006.92307644;4235.00000000;5090.12820694;2103.20512369;229.99999153;-0.00000896;3481.79487020;4372.69230797;4176.28205115;4303.71794886;4433.07692350;4270.25641033;4174.87179474;4205.12820506
4203.07692301;4204.99999993;3617.30769099;4235.89743590;4956.79487333;2106.02563651;229.99999153;-0.00000896;3480.89743430;4371.28205156;4105.25640998;4302.43589758;4858.46153979;4271.66666674;4202.94871788;4205.12820506
4204.23076917;4203.46153840;3648.07692183;4234.87179488;5289.23077146;2106.28204677;229.99999153;-0.00000896;3483.58974200;4366.79487208;4464.74359023;4302.05128219;4340.00000021;4270.25641033;4203.84615378;4205.12820506
4203.58974352;4202.82051275;4960.00000153;4208.71794865;5058.58974533;2073.46153388;229.99999153;-0.00000896;3512.43589591;4369.10256438;4272.05128212;4303.07692322;4172.69230756;4272.30769238;4202.69230763;4205.12820506
4203.33333327;4201.92307686;4271.66666674;4234.48717949;5123.71795060;2071.02563644;229.99999153;-0.00000896;3487.05128046;4398.07692343;4171.41025628;4300.51282066;4467.43589793;4271.79487187;4201.66666660;4205.12820506
4203.71794865;4201.79487173;4366.28205156;4234.35897436;5127.69230957;2104.35896985;229.99999153;-0.00000896;3485.76922917;4372.82051310;4175.76923063;4303.58974373;4503.71794928;4268.20512828;4202.69230763;4205.12820506
4204.35897429;4201.53846147;3486.15384456;4237.05128206;5087.30769412;2133.46153402;229.99999153;-0.00000896;3480.76922917;4368.46153874;4103.20512793;4305.51282066;5055.64102738;4268.84615392;4203.07692301;4205.12820506
4204.87179481;4203.97435891;5290.25641248;4237.43589744;4930.12820659;2102.69230318;229.99999153;-0.00000896;3481.79487020;4402.56410292;4863.33333466;4304.74358989;4102.56410229;4270.12820520;4203.07692301;4205.12820506
4205.64102558;4203.20512814;4303.71794886;4237.43589744;5123.97436085;2074.99999542;229.99999153;-0.00000896;3483.58974200;4403.07692343;4338.71794893;4303.71794886;4401.66666702;4270.12820520;4202.69230763;4205.12820506
4206.28205122;4175.51282038;4832.56410382;4236.15384616;4996.53846314;2074.99999542;229.99999153;-0.00000896;3485.51281892;4368.46153874;4398.71794907;4303.07692322;4497.05128261;4270.64102571;4202.82051275;4205.12820506
4204.10256404;4176.02564089;3743.20512717;4234.74358975;5058.71795046;2102.82050831;229.99999153;-0.00000896;3511.79487027;4370.12820541;4204.99999993;4301.79487194;4929.23077069;4270.12820520;4202.94871788;4205.12820506
4203.58974352;4176.02564089;3807.43589654;4235.64102564;5061.79487354;2103.71794421;229.99999153;-0.00000896;3485.76922917;4366.28205156;4138.58974339;4301.02564117;4463.71794921;4272.43589751;4202.56410250;4205.12820506
4203.97435891;4175.51282038;4830.00000125;4236.66666667;5125.12820701;2105.89743138;229.99999153;-0.00000896;3480.51281892;4369.48717977;4729.61538566;4302.69230784;4302.30769245;4268.84615392;4202.56410250;4205.12820506
4203.58974352;4204.10256404;4139.35897415;4238.07692308;5023.58974526;2105.89743138;229.99999153;-0.00000896;3479.74358815;4369.10256438;4332.30769252;4305.00000014;4595.00000077;4273.07692315;4201.41025634;4205.12820506
4204.48717942;4203.97435891;4728.07692412;4237.30769231;5186.28205330;2104.10255959;229.99999153;-0.00000896;3453.20512654;4369.10256438;4302.05128219;4301.41025655;4240.00000000;4269.10256418;4202.43589737;4205.12820506
4206.53846147;4203.33333327;3584.74358836;4236.28205129;5026.79487347;2104.74358523;229.99999153;-0.00000896;3480.51281892;4369.23076951;4208.58974352;4302.17948732;4729.23077028;4270.51282059;4202.43589737;4205.12820506
4206.41025634;4203.71794865;3846.28205045;4234.35897436;4923.20512967;2103.84614933;229.99999153;-0.00000896;3483.97435738;4398.07692343;4272.94871802;4299.74358989;4431.66666709;4270.38461546;4202.17948711;4205.12820506
4207.69230763;4203.20512814;4399.23076958;4234.87179488;5221.02564311;2102.43589292;229.99999153;-0.00000896;3486.41025482;4400.38461574;4369.35897464;4300.64102578;4501.53846210;4269.35897443;4203.07692301;4205.12820506
4206.66666660;4203.71794865;4631.02564186;4234.74358975;5055.89743764;2104.23076472;229.99999153;-0.00000896;3487.05128046;4369.61538490;4504.10256466;4302.43589758;4234.35897436;4272.82051289;4202.69230763;4205.12820506
4206.28205122;4204.23076917;4372.17948746;4235.64102564;5091.79487361;2105.12820062;35.89742701;-0.00000896;3512.43589591;4369.10256438;4438.58974401;4302.56410271;4237.69230770;4271.15384623;4204.35897429;4205.12820506
4205.51282045;4204.61538455;4437.05128247;4237.43589744;5284.61538684;2103.71794421;-0.00000896;-0.00000896;3513.46153694;4372.30769259;4467.56410305;4304.61538476;4143.20512800;4269.74358982;4202.69230763;4205.12820506
4204.35897429;4205.76923070;3715.12820402;4237.05128206;4893.84615524;2105.64102113;229.99999153;-0.00000896;3512.94871642;4372.69230797;4142.94871774;4304.10256425;4631.53846238;4270.89743597;4201.15384609;4205.12820506
4204.35897429;4205.51282045;4668.46153937;4236.92307693;5253.07692523;2104.61538010;-0.00000896;-0.00000896;3511.92307540;4369.74359003;4693.97435995;4302.43589758;4306.53846168;4272.05128212;4202.05128199;4205.12820506
4203.07692301;4204.61538455;4240.38461539;4236.28205129;4860.76923209;2074.35896978;-0.00000896;-0.00000896;3484.10256251;4371.15384644;4432.17948760;4303.07692322;4496.79487235;4269.74358982;4202.56410250;4205.12820506
4202.82051275;4204.48717942;4660.76923168;4235.76923077;5058.46154020;2073.71794414;-0.00000896;-0.00000896;3484.35897276;4399.35897471;4693.97435995;4303.46153860;3911.02564033;4270.00000007;4204.99999993;4205.12820506
4202.94871788;4203.07692301;3552.30769085;4235.38461539;4798.20512939;2104.61538010;-0.00000896;-0.00000896;3479.87179328;4399.35897471;3938.46153784;4300.89743604;4726.15384720;4269.23076930;4202.82051275;4205.12820506
4205.64102558;4202.94871788;3649.87179362;4236.15384616;5158.33333528;2103.07691856;-0.00000896;-0.00000896;3451.92307526;4372.30769259;4366.28205156;4303.33333348;4829.87179613;4268.58974366;4202.69230763;4205.12820506
4206.92307686;4203.33333327;4600.38461615;4235.51282052;5186.53846356;2103.07691856;-0.00000896;-0.00000896;3452.94871628;4399.23076958;4335.64102585;4305.00000014;4071.66666632;4270.25641033;4202.69230763;4205.12820506
4207.56410250;4203.07692301;4960.38461692;4237.17948718;5022.94871962;2075.12820055;-0.00000896;-0.00000896;3481.02563943;4403.20512856;4366.15384644;4303.07692322;4371.79487208;4268.46153853;4202.82051275;4205.12820506
4208.58974352;4201.28205122;4531.66666730;4236.41025641;5025.51282218;2100.64102113;-0.00000896;-0.00000896;3484.23076764;4373.07692336;4176.02564089;4304.74358989;4535.12820576;4269.61538469;4202.69230763;4205.12820506
4207.56410250;4175.76923063;3450.51281885;4235.76923077;5284.48718171;2102.69230318;-0.00000896;-0.00000896;3484.10256251;4368.33333362;3877.82051206;4302.56410271;4826.41025766;4268.71794879;4202.43589737;4205.12820506
4205.38461532;4201.53846147;3778.71794775;4235.25641026;4832.43589869;2102.82050831;-0.00000896;-0.00000896;3485.25640866;4369.35897464;4465.51282100;4302.05128219;4464.74359023;4272.30769238;4202.56410250;4205.12820506
4206.02564096;4201.28205122;4135.38461518;4234.35897436;5220.64102773;2075.64102106;-0.00000896;-0.00000896;3483.97435738;4370.76923105;4467.30769280;4304.35897450;4566.28205198;4269.87179495;4203.58974352;4205.12820506
4203.58974352;4202.43589737;4503.84615441;4236.28205129;5024.10256577;2103.97435446;-0.00000896;-0.00000896;3485.64102405;4368.58974387;4534.23076986;4304.10256425;4136.53846133;4270.38461546;4202.56410250;4205.12820506
4203.20512814;4202.69230763;4766.41025753;4235.00000000;5289.48718171;2102.43589292;-0.00000896;-0.00000896;3484.23076764;4371.02564131;4435.64102606;4305.12820527;4041.15384574;4270.00000007;4202.69230763;4205.12820506
4203.84615378;4201.92307686;3650.64102439;4234.61538462;4828.58974484;2102.30768779;-0.00000896;-0.00000896;3485.51281892;4368.07692336;4039.87179446;4301.15384630;4760.00000112;4270.12820520;4203.97435891;4205.12820506
4203.58974352;4202.17948711;4072.94871761;4234.74358975;5257.43589959;2104.99999549;-0.00000896;-0.00000896;3484.74358815;4370.76923105;4009.23076875;4305.64102578;4401.28205163;4271.79487187;4202.69230763;4205.12820506
4204.23076917;4201.66666660;4333.33333355;4235.51282052;4923.84615531;2102.56409805;-0.00000896;-0.00000896;3485.51281892;4366.15384644;4234.61538462;4301.02564117;4464.87179536;4270.76923084;4202.82051275;4205.12820506
4205.25641019;4202.82051275;4563.07692378;4235.89743590;4925.25641172;2103.71794421;-0.00000896;-0.00000896;3482.43589584;4367.94871823;4536.02564165;4302.30769245;4403.97435933;4269.61538469;4202.82051275;4205.12820506
4205.51282045;4204.10256404;3714.74358864;4236.79487180;4897.94871934;2106.28204677;-0.00000896;-0.00000896;3484.23076764;4400.89743625;3939.48717887;4303.71794886;4530.89743653;4271.15384623;4202.56410250;4205.12820506
4206.53846147;4202.82051275;3321.92307498;4235.51282052;4897.94871934;2106.66666215;-0.00000896;-0.00000896;3484.23076764;4399.35897471;4399.10256445;4302.30769245;4697.82051380;4270.12820520;4202.69230763;4205.12820506
4205.76923070;4203.33333327;4792.69230888;4235.12820513;4930.64102710;2104.35896985;-0.00000896;-0.00000896;3486.41025482;4369.10256438;4470.76923126;4303.33333348;4533.33333396;4270.25641033;4204.35897429;4205.12820506
4204.48717942;4203.71794865;4107.82051255;4235.00000000;5093.20513002;2107.17948267;-0.00000896;-0.00000896;3511.79487027;4369.48717977;4206.41025634;4300.89743604;4335.25641047;4270.89743597;4202.82051275;4205.12820506
4204.74358968;4204.48717942;4989.23077083;4235.25641026;5187.17948920;2074.99999542;-0.00000896;-0.00000896;3486.53845994;4368.46153874;4401.41025676;4304.35897450;4403.84615420;4270.12820520;4202.30769224;4205.12820506
4205.64102558;4203.97435891;3514.48717796;4237.56410257;5220.76923286;2074.10255952;-0.00000896;-0.00000896;3481.28204969;4398.58974394;3909.87179418;4301.41025655;4762.05128317;4269.87179495;4202.56410250;4205.12820506
4205.12820506;4202.43589737;3974.35897381;4237.05128206;4893.20512960;2107.69230318;-0.00000896;-0.00000896;3480.25640866;4371.92307720;4398.07692343;4301.41025655;4299.87179501;4270.00000007;4176.28205115;4205.12820506
4205.76923070;4202.43589737;4662.82051373;4236.53846154;5093.07692489;2108.07691856;-0.00000896;-0.00000896;3481.28204969;4372.69230797;4337.43589765;4303.46153860;4338.58974380;4267.94871802;4202.56410250;4205.12820506
4207.17948711;4201.92307686;4040.12820472;4235.51282052;4989.10256570;2104.99999549;229.99999153;-0.00000896;3483.84615225;4400.64102599;4400.38461574;4274.48717956;4335.64102585;4268.84615392;4202.43589737;4205.12820506
4205.76923070;4203.58974352;4865.12820645;4234.87179488;4893.97436037;2074.99999542;229.99999153;-0.00000896;3485.89743430;4370.89743618;4503.97435953;4303.20512835;4236.28205129;4269.35897443;4201.79487173;4205.12820506
4205.64102558;4202.82051275;3549.10256265;4234.87179488;4858.33333466;2069.99999542;229.99999153;-0.00000896;3485.12820353;4370.12820541;4077.69230735;4301.41025655;4564.87179557;4271.53846161;4202.69230763;4205.12820506
4204.99999993;4201.28205122;3880.89743514;4236.15384616;5351.66666903;2100.76922626;229.99999153;-0.00000896;3480.38461379;4370.12820541;3972.17948663;4302.56410271;4698.33333431;4268.84615392;4202.82051275;4205.12820506
4204.23076917;4202.30769224;3973.71794817;4235.76923077;5156.66666862;2103.46153395;-0.00000896;-0.00000896;3479.87179328;4369.35897464;4697.82051380;4302.43589758;4502.56410312;4269.74358982;4202.82051275;4205.12820506
4206.02564096;4203.20512814;4234.48717949;4235.51282052;4896.15384755;2108.46153395;-0.00000896;-0.00000896;3479.74358815;4370.00000028;4662.43589834;4302.82051296;4333.97435919;4272.30769238;4202.30769224;4205.12820506
4205.12820506;4203.71794865;5060.64102738;4236.02564103;4927.82051428;2105.64102113;229.99999153;-0.00000896;3481.28204969;4369.48717977;4535.12820576;4304.74358989;4301.15384630;4270.76923084;4202.94871788;4205.12820506
4205.51282045;4204.48717942;3580.89743451;4235.64102564;4796.15384734;2075.38461080;-0.00000896;-0.00000896;3479.99999841;4366.66666695;4039.35897395;4299.61538476;4437.94871837;4269.61538469;4202.56410250;4205.12820506
4205.38461532;4203.71794865;3843.58974276;4236.02564103;5256.66666882;2107.94871344;229.99999153;-0.00000896;3480.12820353;4371.53846182;3879.10256334;4300.89743604;4695.76923175;4270.25641033;4202.69230763;4205.12820506
4205.38461532;4203.84615378;4205.38461532;4235.12820513;4929.61538608;2104.23076472;-0.00000896;-0.00000896;3480.76922917;4370.51282079;4469.48717998;4304.23076937;4371.53846182;4272.56410264;4203.20512814;4205.12820506
4206.66666660;4202.43589737;3583.33333195;4234.61538462;4865.25641158;2106.02563651;229.99999153;-0.00000896;3482.17948559;4371.92307720;4404.23076958;4301.02564117;4635.12820597;4270.25641033;4201.66666660;4205.12820506
4206.15384609;4204.35897429;4993.71795032;4208.46153840;5223.71795081;2103.71794421;-0.00000896;-0.00000896;3483.71794712;4400.38461574;4927.69230916;4301.66666681;3518.71794719;4270.76923084;4202.30769224;4205.12820506
4206.02564096;4204.10256404;3613.71794740;4234.35897436;4798.20512939;2104.35896985;229.99999153;-0.00000896;3481.79487020;4399.23076958;3907.17948649;4303.46153860;4667.17948809;4270.12820520;4201.79487173;4205.12820506
4206.28205122;4202.43589737;3742.17948614;4208.97435891;5224.48718158;2101.28204677;-0.00000896;-0.00000896;3485.51281892;4372.05128233;4333.84615406;4302.82051296;4206.02564096;4268.58974366;4202.56410250;4205.12820506
4205.76923070;4203.20512814;3946.41025579;4235.76923077;5126.41025829;2104.74358523;229.99999153;-0.00000896;3486.28204969;4369.10256438;4043.84615343;4302.56410271;4792.30769349;4268.71794879;4201.41025634;4205.12820506
4206.02564096;4204.35897429;3551.66666521;4235.38461539;5290.25641248;2106.28204677;-0.00000896;-0.00000896;3486.66666507;4403.20512856;4102.56410229;4299.87179501;4529.74359037;4270.12820520;4202.30769224;4205.12820506
4205.64102558;4203.97435891;4759.23077035;4236.79487180;4791.92307811;2105.64102113;229.99999153;-0.00000896;3485.38461379;4371.66666695;4865.51282184;4301.41025655;4137.82051262;4270.64102571;4202.30769224;4205.12820506
4204.74358968;4202.69230763;4338.84615406;4236.66666667;5024.87179654;2102.82050831;-0.00000896;-0.00000896;3512.43589591;4369.35897464;4042.30769189;4303.07692322;4499.74359030;4269.87179495;4202.05128199;4205.12820506
4204.10256404;4202.94871788;3911.79487110;4236.02564103;4896.66666806;2103.84614933;229.99999153;-0.00000896;3512.94871642;4372.56410285;4667.05128296;4301.92307707;4142.69230749;4269.87179495;4202.82051275;4205.12820506
4203.58974352;4201.79487173;4141.02564082;4236.66666667;5128.07692496;2104.35896985;-0.00000896;-0.00000896;3484.48717789;4399.87179522;3712.94871684;4301.28205142;4502.82051338;4271.66666674;4202.69230763;4205.12820506
4204.48717942;4202.43589737;4004.74358926;4235.76923077;5056.79487354;2105.12820062;229.99999153;-0.00000896;3482.69230610;4397.94871830;4700.64102662;4303.71794886;4628.84615468;4269.10256418;4202.43589737;4205.12820506
4205.25641019;4202.82051275;5223.46154055;4237.30769231;4861.66666799;2074.48717490;-0.00000896;-0.00000896;3481.66666507;4373.07692336;4431.79487222;4302.17948732;4300.76923091;4271.53846161;4204.48717942;4205.12820506
4205.12820506;4202.43589737;3647.43589619;4237.43589744;4697.43589841;2101.15384164;229.99999153;-0.00000896;3481.41025482;4400.89743625;4373.07692336;4302.17948732;4403.20512856;4270.64102571;4202.30769224;4205.12820506
4204.48717942;4202.82051275;4077.56410222;4237.43589744;5323.58974589;2104.48717497;-0.00000896;-0.00000896;3481.66666507;4372.82051310;3905.89743521;4302.05128219;4402.05128240;4270.12820520;4201.41025634;4205.12820506
4204.87179481;4201.92307686;3906.02564033;4236.53846154;4989.61538622;2105.38461087;229.99999153;-0.00000896;3484.48717789;4368.20512849;4306.15384630;4300.89743604;4962.43589897;4270.64102571;4202.56410250;4205.12820506
4205.64102558;4202.43589737;4339.48717970;4236.02564103;5188.97436099;2104.87179036;-0.00000896;-0.00000896;3484.10256251;4366.41025669;4267.43589751;4301.66666681;4005.51282003;4270.51282059;4202.56410250;4205.12820506
4204.23076917;4202.17948711;4831.92307818;4235.25641026;4830.38461664;2101.79486728;229.99999153;-0.00000896;3483.97435738;4372.05128233;4471.66666716;4301.15384630;4596.79487256;4272.05128212;4202.69230763;4205.12820506
4203.58974352;4202.17948711;3873.33333257;4236.79487180;4963.58974512;2101.66666215;-0.00000896;-0.00000896;3481.53845994;4369.87179515;4306.41025655;4301.41025655;4202.82051275;4269.48717956;4202.69230763;4205.12820506
4204.23076917;4202.05128199;3812.94871705;4236.92307693;4989.74359135;2104.74358523;229.99999153;-0.00000896;3480.64102405;4398.33333368;3975.64102509;4303.71794886;4566.53846224;4270.38461546;4202.56410250;4205.12820506
4204.99999993;4202.69230763;3352.69230582;4235.76923077;4926.28205275;2103.20512369;-0.00000896;-0.00000896;3480.12820353;4366.28205156;4368.07692336;4302.17948732;4797.82051401;4272.43589751;4203.07692301;4205.12820506
4204.48717942;4202.43589737;4865.25641158;4236.53846154;5187.05128407;2102.94871344;229.99999153;-0.00000896;3482.05128046;4369.10256438;4634.35897520;4303.33333348;4108.58974332;4268.84615392;4202.56410250;4205.12820506
4205.51282045;4202.69230763;4104.35897408;4235.00000000;5022.56410424;2104.48717497;-0.00000896;-0.00000896;3482.43589584;4370.64102592;4438.33333375;4301.15384630;4302.82051296;4268.20512828;4202.69230763;4205.12820506
4205.64102558;4202.17948711;4140.25641005;4236.92307693;4962.94871948;2104.35896985;229.99999153;-0.00000896;3481.53845994;4365.12820541;4268.71794879;4302.30769245;4207.43589737;4268.33333341;4202.69230763;4205.12820506
4206.41025634;4201.28205122;4142.17948697;4237.30769231;5153.20513015;2102.17948267;0.25640130;-0.00000896;3482.69230610;4369.10256438;4106.28205101;4303.84615399;4598.58974436;4271.15384623;4202.30769224;4205.12820506
4206.41025634;4202.82051275;3282.17948517;4236.53846154;5055.51282225;2102.82050831;8308.33334195;-0.00000896;3482.69230610;4398.07692343;4266.79487187;4303.84615399;4859.10256543;4271.79487187;4204.48717942;4205.12820506
4206.79487173;4203.20512814;5350.51282288;4237.56410257;5156.28205323;2105.51281600;-0.00000896;-0.00000896;3482.94871635;4372.17948746;4469.23076972;4301.53846168;3679.61538344;4270.12820520;4202.56410250;4205.12820506
4206.41025634;4203.33333327;3945.12820451;4236.92307693;4635.00000084;2106.02563651;229.99999153;-0.00000896;3482.30769071;4370.25641054;4076.41025607;4303.33333348;4865.00000132;4270.89743597;4203.46153840;4205.12820506
4206.79487173;4202.30769224;4103.97435870;4234.74358975;5094.74359155;2106.02563651;229.99999153;-0.00000896;3479.87179328;4372.17948746;4176.28205115;4303.58974373;4435.76923119;4269.87179495;4203.07692301;4205.12820506
4206.66666660;4201.79487173;3945.89743528;4236.66666667;5153.71795067;2101.66666215;229.99999153;-0.00000896;3479.48717789;4367.05128233;4207.56410250;4304.48717963;4864.87179620;4271.66666674;4202.05128199;4205.12820506
4207.69230763;4201.15384609;4599.87179564;4235.38461539;5185.89743792;2100.76922626;229.99999153;-0.00000896;3479.87179328;4368.46153874;4467.82051331;4302.69230784;3978.33333278;4272.56410264;4202.56410250;4205.12820506
4207.30769224;4202.56410250;4338.33333355;4236.15384616;4858.97436030;2106.41025190;-0.00000896;-0.00000896;3480.12820353;4370.25641054;4501.66666723;4303.97435912;4175.38461525;4270.38461546;4202.56410250;4205.12820506
4207.05128199;4202.17948711;3644.35897311;4235.76923077;4896.15384755;2134.99999556;-0.00000896;-0.00000896;3481.66666507;4368.71794900;4402.05128240;4302.69230784;4270.76923084;4268.84615392;4202.82051275;4205.12820506
4207.69230763;4203.07692301;4436.41025683;4234.35897436;5160.51282246;2104.10255959;-0.00000896;-0.00000896;3482.43589584;4398.33333368;4042.69230728;4299.74358989;4335.89743611;4270.89743597;4205.64102558;4205.12820506
4206.92307686;4202.30769224;4103.58974332;4234.87179488;4991.41025801;2074.48717490;-0.00000896;-0.00000896;3484.23076764;4398.20512856;4664.48718039;4304.87179501;4398.58974394;4270.00000007;4202.56410250;4205.12820506
4205.25641019;4202.30769224;4860.51282184;4234.35897436;4926.66666813;2100.64102113;-0.00000896;-0.00000896;3484.35897276;4398.20512856;4401.66666702;4304.74358989;4435.12820555;4271.66666674;4202.56410250;4205.12820506
4203.97435891;4201.92307686;3581.66666528;4235.00000000;4727.69230874;2104.87179036;-0.00000896;-0.00000896;3482.69230610;4367.94871823;4038.07692266;4300.89743604;4434.10256452;4270.00000007;4206.53846147;4205.12820506
4204.48717942;4201.41025634;4143.33333313;4236.41025641;5252.82051498;2101.92307241;-0.00000896;-0.00000896;3480.64102405;4398.71794907;3907.17948649;4303.58974373;4500.00000056;4270.76923084;4202.30769224;4205.12820506
4204.23076917;4202.56410250;4208.58974352;4237.56410257;4891.53846293;2105.51281600;-0.00000896;-0.00000896;3480.38461379;4372.30769259;4400.89743625;4304.23076937;4862.69230902;4271.28205136;4202.82051275;4205.12820506
4204.10256404;4202.30769224;4367.56410285;4236.79487180;4764.48718060;2104.74358523;-0.00000896;-0.00000896;3479.61538302;4370.51282079;4471.41025690;4302.69230784;4107.30769203;4270.00000007;4202.94871788;4205.12820506
4202.43589737;4202.17948711;4732.69230874;4237.56410257;4996.79487340;2103.97435446;-0.00000896;-0.00000896;3480.12820353;4371.53846182;4599.74359051;4274.35897443;4139.87179467;4268.46153853;4175.64102551;4205.12820506
4202.82051275;4202.05128199;3546.41025495;4235.76923077;4859.48718081;2105.38461087;-0.00000896;-0.00000896;3480.38461379;4368.84615413;4142.30769210;4302.05128219;4435.89743632;4270.51282059;4202.82051275;4205.12820506
4202.43589737;4202.30769224;4136.28205108;4236.02564103;5290.00000223;2106.28204677;-0.00000896;-0.00000896;3481.28204969;4371.79487208;3941.15384553;4304.10256425;4661.15384706;4269.61538469;4202.69230763;4205.12820506
4203.33333327;4202.69230763;3907.56410187;4236.15384616;4993.07692468;2105.64102113;-0.00000896;-0.00000896;3479.10256251;4401.41025676;4304.74358989;4304.10256425;4762.17948830;4268.97435905;4202.43589737;4205.12820506
4203.97435891;4202.43589737;5058.71795046;4237.17948718;5061.02564277;2104.23076472;-0.00000896;-0.00000896;3480.51281892;4370.51282079;4660.51282142;4301.02564117;3812.17948628;4271.53846161;4175.76923063;4205.12820506
4204.48717942;4202.82051275;5092.43589925;4238.58974359;4958.33333487;2103.07691856;-0.00000896;-0.00000896;3480.12820353;4400.51282086;4367.30769259;4303.84615399;4432.43589786;4270.38461546;4202.30769224;4205.12820506
4204.99999993;4202.05128199;3447.82051116;4236.41025641;5251.41025857;2107.17948267;-0.00000896;-0.00000896;3481.66666507;4369.74359003;4006.79487131;4302.56410271;4628.07692391;4271.15384623;4202.43589737;4205.12820506
4203.84615378;4201.28205122;4301.92307707;4237.05128206;4793.97436016;2134.74358530;-0.00000896;-0.00000896;3480.76922917;4340.25641047;4463.84615434;4301.92307707;4336.66666688;4269.87179495;4201.92307686;4205.12820506
4202.56410250;4203.07692301;3808.33333243;4236.53846154;5256.66666882;2106.66666215;-0.00000896;-0.00000896;3482.17948559;4340.12820534;4110.64102537;4301.66666681;4469.61538511;4270.12820520;4202.69230763;4205.12820506
4203.46153840;4204.48717942;4894.48718088;4235.38461539;4991.92307853;2105.64102113;-0.00000896;-0.00000896;3482.56410097;4369.35897464;4726.92307797;4301.15384630;4110.64102537;4270.64102571;4202.17948711;4205.12820506
4202.94871788;4203.33333327;4237.17948718;4235.12820513;4893.46153986;2104.23076472;-0.00000896;-0.00000896;3483.97435738;4370.76923105;4202.82051275;4303.20512835;4465.89743639;4269.61538469;4202.56410250;4205.12820506
4203.97435891;4203.20512814;3716.02563992;4236.15384616;4898.33333473;2105.51281600;-0.00000896;-0.00000896;3454.23076757;4372.82051310;4171.15384602;4300.38461553;4339.74358996;4270.25641033;4202.56410250;4205.12820506
4204.74358968;4203.97435891;4470.25641075;4236.79487180;4963.97436051;2103.58973908;-0.00000896;-0.00000896;3452.56410090;4371.02564131;4431.15384657;4303.46153860;4829.23077049;4271.02564110;4202.56410250;4205.12820506
4206.02564096;4203.97435891;4565.00000070;4237.94871795;5029.35897603;2073.84614926;-0.00000896;-0.00000896;3453.07692141;4370.64102592;4470.76923126;4300.38461553;4006.53846106;4270.25641033;4204.74358968;4205.12820506
4206.79487173;4203.97435891;4994.23077083;4239.23076923;5284.61538684;2074.10255952;-0.00000896;-0.00000896;3453.71794705;4399.61538497;4398.84615420;4301.02564117;4469.74359023;4272.94871802;4202.43589737;4205.12820506
4206.15384609;4203.46153840;3682.05128087;4238.20512821;5057.56410431;2075.64102106;229.99999153;-0.00000896;3453.58974193;4371.28205156;3875.12820437;4303.58974373;4696.79487277;4272.05128212;4202.69230763;4205.12820506
4205.51282045;4202.69230763;3974.35897381;4237.43589744;4858.20512953;2102.30768779;-0.00000896;-0.00000896;3480.89743430;4370.12820541;4334.35897457;4302.43589758;4337.56410278;4269.87179495;4202.17948711;4205.12820506
4205.12820506;4201.79487173;4004.23076875;4235.38461539;5094.61538643;2103.20512369;-0.00000896;-0.00000896;3479.99999841;4370.25641054;4238.20512821;4301.53846168;4699.61538559;4268.33333341;4175.89743576;4205.12820506
4204.35897429;4201.92307686;4529.23076986;4236.66666667;4960.25641179;2102.17948267;-0.00000896;-0.00000896;3479.74358815;4372.30769259;4534.48718012;4301.79487194;3946.02564040;4270.64102571;4202.56410250;4205.12820506
4203.71794865;4201.28205122;4825.89743715;4236.66666667;5024.87179654;2100.89743138;229.99999153;-0.00000896;3479.35897276;4372.82051310;4399.10256445;4302.30769245;4301.15384630;4270.51282059;4202.30769224;4205.12820506
4202.82051275;4201.15384609;3579.35897297;4236.79487180;5026.79487347;2101.92307241;229.99999153;-0.00000896;3453.84615218;4372.82051310;4075.51282017;4303.84615399;4569.23076993;4270.25641033;4203.97435891;4205.12820506
4203.84615378;4201.02564096;4070.76923043;4236.02564103;5191.79487381;2104.23076472;229.99999153;-0.00000896;3479.35897276;4371.15384644;3975.64102509;4306.41025655;4693.97435995;4272.82051289;4203.07692301;4205.12820506
4204.48717942;4201.41025634;4036.92307651;4236.41025641;5152.94871990;2104.10255959;229.99999153;-0.00000896;3453.97435731;4366.53846182;4271.66666674;4301.53846168;4666.92307783;4270.12820520;4201.41025634;4205.12820506
4203.97435891;4202.43589737;4663.84615475;4234.87179488;4798.46153965;2107.30768779;229.99999153;-0.00000896;3481.15384456;4368.71794900;4829.61538587;4301.79487194;4008.71794824;4270.64102571;4202.56410250;4205.12820506
4202.94871788;4202.05128199;4728.58974464;4234.48717949;5255.64102780;2106.15384164;229.99999153;-0.00000896;3482.82051123;4366.41025669;4169.61538448;4301.41025655;4340.25641047;4270.51282059;4202.56410250;4205.12820506
4202.17948711;4202.69230763;3741.53846050;4234.87179488;4893.07692447;2107.94871344;229.99999153;-0.00000896;3483.84615225;4339.87179508;4241.15384616;4303.07692322;4566.02564172;4272.30769238;4202.69230763;4205.12820506
4203.46153840;4203.07692301;3972.05128150;4234.48717949;5089.10256591;2108.20512369;229.99999153;-0.00000896;3485.12820353;4370.51282079;3908.58974290;4304.61538476;4369.74359003;4271.02564110;4202.05128199;4205.12820506
4204.10256404;4204.10256404;3676.41025523;4235.89743590;4798.84615503;2107.05127754;229.99999153;-0.00000896;3481.92307533;4368.46153874;4400.00000035;4301.92307707;4795.76923195;4270.25641033;4202.69230763;4205.12820506
4204.10256404;4204.99999993;4663.46153937;4236.66666667;5192.30769433;2103.33332882;229.99999153;-0.00000896;3481.28204969;4371.15384644;4438.71794914;4304.87179501;4040.51282010;4270.51282059;4203.84615378;4205.12820506
4204.23076917;4204.48717942;4434.61538504;4238.07692308;4857.69230902;2103.07691856;229.99999153;-0.00000896;3482.69230610;4399.61538497;4306.28205142;4302.17948732;4564.61538531;4270.51282059;4202.17948711;4205.12820506
4205.64102558;4203.33333327;3649.23076798;4237.30769231;5087.94871976;2106.79486728;229.99999153;-0.00000896;3480.38461379;4399.74359009;4142.43589723;4302.82051296;4300.76923091;4272.17948725;4202.56410250;4205.12820506
4204.87179481;4202.82051275;4338.97435919;4237.43589744;4926.15384762;2102.43589292;229.99999153;-0.00000896;3481.66666507;4372.30769259;4142.94871774;4301.41025655;4896.66666806;4270.00000007;4203.97435891;4205.12820506
4204.48717942;4203.58974352;4270.89743597;4237.94871795;5191.28205330;2104.74358523;229.99999153;-0.00000896;3482.05128046;4369.87179515;4501.02564159;4304.74358989;3943.97435835;4272.30769238;4202.30769224;4205.12820506
4204.48717942;4201.66666660;5088.46154027;4237.94871795;4863.58974491;2136.02563658;229.99999153;-0.00000896;3479.48717789;4367.30769259;4596.02564179;4302.69230784;4173.33333320;4269.61538469;4204.74358968;4205.12820506
4204.10256404;4203.84615378;3939.74358912;4238.07692308;5025.64102731;2106.28204677;229.99999153;-0.00000896;3480.25640866;4366.66666695;4273.97435905;4302.17948732;4239.61538462;4271.66666674;4202.43589737;4205.12820506
4203.71794865;4204.48717942;4238.84615385;4238.97435898;5025.12820680;2101.02563651;229.99999153;-0.00000896;3453.84615218;4372.69230797;4104.99999973;4304.87179501;4733.46153951;4268.84615392;4202.30769224;4205.12820506
4203.71794865;4203.71794865;4006.41025593;4238.84615385;5121.15384803;2071.41025183;229.99999153;-0.00000896;3451.92307526;4398.07692343;4174.23076910;4301.66666681;4365.64102592;4271.53846161;4202.43589737;4205.12820506
4203.46153840;4201.02564096;3481.41025482;4239.10256411;4830.00000125;2101.15384164;229.99999153;-0.00000896;3450.51281885;4370.25641054;4405.64102599;4301.02564117;4500.38461594;4272.56410264;4202.43589737;4205.12820506
4204.10256404;4176.15384602;5258.58974575;4238.07692308;4990.12820673;2102.17948267;229.99999153;-0.00000896;3449.61538295;4369.10256438;4470.64102613;4302.43589758;3848.07692225;4272.43589751;4202.30769224;4205.12820506
4203.46153840;4201.92307686;3879.35897360;4238.20512821;4857.43589876;2106.15384164;229.99999153;-0.00000896;3447.05128039;4371.28205156;4208.97435891;4301.66666681;4531.15384678;4271.15384623;4202.69230763;4205.12820506
4203.58974352;4202.82051275;4138.07692287;4238.33333334;4996.15384776;2106.66666215;229.99999153;-0.00000896;3447.94871628;4368.97435926;4168.84615371;4301.92307707;4369.23076951;4272.69230777;4203.33333327;4205.12820506
4204.99999993;4202.05128199;4007.30769183;4237.82051282;5252.05128421;2105.38461087;229.99999153;-0.00000896;3448.58974193;4370.64102592;4339.10256431;4303.84615399;4698.84615482;4273.07692315;4202.56410250;4205.12820506
4205.12820506;4203.07692301;4594.87179564;4236.92307693;4828.71794997;2106.53845703;229.99999153;-0.00000896;3449.74358808;4369.87179515;4666.28205219;4303.97435912;4070.51282017;4270.89743597;4202.56410250;4205.12820506
4204.87179481;4203.20512814;4471.28205177;4235.89743590;5224.48718158;2108.46153395;229.99999153;-0.00000896;3451.79487013;4399.23076958;4077.69230735;4303.07692322;4465.38461587;4270.38461546;4202.05128199;4205.12820506
4204.87179481;4203.33333327;3584.48717810;4236.02564103;5092.82051463;2134.23076479;229.99999153;-0.00000896;3453.07692141;4367.05128233;4041.66666625;4303.33333348;4663.58974450;4270.89743597;4202.69230763;4205.12820506
4204.48717942;4202.82051275;4239.35897436;4235.38461539;5056.28205302;2133.97435453;229.99999153;-0.00000896;3453.58974193;4365.76923105;4340.38461560;4303.71794886;4597.94871872;4272.56410264;4202.30769224;4205.12820506
4204.10256404;4204.48717942;3842.56410173;4237.43589744;4959.23077076;2107.82050831;229.99999153;-0.00000896;3453.33333167;4340.38461560;4302.56410271;4301.02564117;4305.89743604;4270.51282059;4202.17948711;4205.12820506
4205.25641019;4204.48717942;5157.17948913;4236.02564103;4927.82051428;2107.82050831;229.99999153;-0.00000896;3453.20512654;4398.07692343;4798.46153965;4302.94871809;4201.79487173;4271.28205136;4202.17948711;4205.12820506
4204.87179481;4205.76923070;3683.84615267;4236.41025641;5090.25641207;2133.71794427;229.99999153;-0.00000896;3452.30769064;4371.41025669;4105.51282024;4300.76923091;4569.48718019;4270.25641033;4175.76923063;4205.12820506
4205.38461532;4205.89743583;4272.94871802;4237.30769231;4829.61538587;2135.89743145;229.99999153;-0.00000896;3451.92307526;4370.38461567;4467.05128254;4302.17948732;4565.38461608;4272.43589751;4202.82051275;4205.12820506
4204.74358968;4206.02564096;4272.05128212;4235.38461539;5188.58974561;2107.05127754;229.99999153;-0.00000896;3450.89743423;4400.64102599;3876.53846078;4301.41025655;4301.66666681;4271.41025648;4201.02564096;4205.12820506
4205.64102558;4204.74358968;4240.25641026;4236.92307693;4929.35897582;2104.10255959;229.99999153;-0.00000896;3451.79487013;4399.10256445;4794.10256529;4301.66666681;4398.58974394;4270.51282059;4202.43589737;4205.12820506
4206.02564096;4203.20512814;5057.43589918;4235.64102564;4960.00000153;2104.87179036;-0.00000896;-0.00000896;3452.05128039;4398.33333368;4402.82051317;4303.97435912;4170.38461525;4271.66666674;4202.30769224;4205.12820506
4205.51282045;4203.97435891;3584.48717810;4235.89743590;4730.89743694;2102.69230318;-0.00000896;-0.00000896;3451.92307526;4372.43589772;4170.51282038;4303.84615399;4564.87179557;4270.38461546;4206.15384609;4205.12820506
4206.66666660;4204.35897429;4107.17948691;4236.79487180;5319.87179717;2104.87179036;229.99999153;-0.00000896;3451.28204962;4397.94871830;3847.43589661;4300.64102578;4471.41025690;4271.15384623;4202.82051275;4205.12820506
4205.76923070;4204.74358968;4076.02564068;4237.82051282;4923.97436044;2105.12820062;-0.00000896;-0.00000896;3451.53845987;4400.51282086;4372.05128233;4302.05128219;4865.51282184;4271.02564110;4202.82051275;4205.12820506
4205.12820506;4203.58974352;4963.33333487;4236.41025641;5088.97436078;2104.87179036;-0.00000896;-0.00000896;3451.41025475;4371.92307720;4464.74359023;4304.10256425;3878.58974283;4270.89743597;4202.82051275;4205.12820506
4204.35897429;4203.20512814;4733.71794976;4237.30769231;5221.79487388;2104.87179036;-0.00000896;-0.00000896;3451.28204962;4398.33333368;4172.17948704;4303.97435912;4371.15384644;4271.92307700;4202.94871788;4205.12820506
4203.58974352;4202.56410250;3845.12820430;4234.87179488;5190.12820715;2101.66666215;-0.00000896;-0.00000896;3450.25640859;4401.92307727;3945.12820451;4301.02564117;4529.48718012;4271.92307700;4202.17948711;4205.12820506
4203.07692301;4201.15384609;3910.25640957;4235.76923077;4829.48718074;2101.02563651;-0.00000896;-0.00000896;3450.12820346;4372.56410285;4437.17948760;4301.66666681;4369.23076951;4271.79487187;4202.30769224;4205.12820506
4202.82051275;4201.02564096;3940.89743528;4235.51282052;4958.97436051;2104.99999549;-0.00000896;-0.00000896;3450.25640859;4399.87179522;4044.74358933;4301.79487194;4633.71794956;4269.23076930;4202.69230763;4205.12820506
4203.33333327;4201.15384609;3485.51281892;4235.12820513;4959.87179640;2106.92307241;-0.00000896;-0.00000896;3450.76922911;4398.33333368;4503.07692364;4301.28205142;4334.87179508;4270.00000007;4205.76923070;4205.12820506
4203.07692301;4201.02564096;5420.25641276;4235.25641026;5121.92307880;2106.15384164;-0.00000896;-0.00000896;3452.69230603;4368.58974387;4207.94871788;4302.05128219;3810.76922987;4270.00000007;4202.82051275;4205.12820506
4202.94871788;4201.66666660;4338.07692329;4209.10256404;4930.38461685;2106.92307241;-0.00000896;-0.00000896;3453.97435731;4370.51282079;3847.82051199;4302.43589758;4635.25641109;4271.92307700;4202.43589737;4205.12820506
4202.82051275;4201.28205122;4536.02564165;4234.23076923;5251.53846370;2107.05127754;-0.00000896;-0.00000896;3451.53845987;4369.23076951;4240.64102564;4302.43589758;4435.25641068;4271.02564110;4201.66666660;4205.12820506
4202.82051275;4201.53846147;2959.23076652;4235.25641026;4893.58974498;2107.30768779;-0.00000896;-0.00000896;3451.02563936;4368.58974387;4077.69230735;4301.79487194;4598.33333410;4270.76923084;4202.17948711;4205.12820506
4203.07692301;4202.30769224;4502.69230825;4235.76923077;5124.87179675;2107.05127754;-0.00000896;-0.00000896;3449.35897270;4367.30769259;4569.61538531;4301.66666681;4627.82051366;4270.51282059;4202.69230763;4205.12820506
4203.84615378;4203.71794865;4992.30769391;4235.51282052;5060.00000174;2105.76922626;-0.00000896;-0.00000896;3450.89743423;4398.84615420;3973.07692252;4303.84615399;4141.79487159;4271.15384623;4202.17948711;4205.12820506
4205.12820506;4202.69230763;4135.64102544;4235.64102564;4795.76923195;2106.92307241;-0.00000896;-0.00000896;3452.05128039;4371.66666695;4237.30769231;4305.00000014;4596.79487256;4270.51282059;4202.56410250;4205.12820506
4204.74358968;4202.05128199;4301.41025655;4235.00000000;5155.51282246;2106.02563651;-0.00000896;-0.00000896;3452.82051116;4398.46153881;3779.48717852;4301.66666681;4469.74359023;4270.38461546;4202.69230763;4205.12820506
4204.87179481;4202.43589737;3807.56410166;4236.02564103;5159.87179682;2103.07691856;-0.00000896;-0.00000896;3453.46153680;4369.61538490;4008.97435849;4302.43589758;4502.30769287;4270.64102571;4201.28205122;4205.12820506
4205.12820506;4202.17948711;3284.74358773;4235.25641026;4792.17948836;2134.48717504;-0.00000896;-0.00000896;3452.94871628;4370.64102592;4464.35897485;4302.43589758;4470.25641075;4272.43589751;4202.30769224;4205.12820506
4204.61538455;4204.10256404;4204.48717942;4235.51282052;5192.17948920;2136.28204684;-0.00000896;-0.00000896;3452.94871628;4371.15384644;4466.28205177;4303.71794886;3713.46153735;4271.28205136;4202.94871788;4205.12820506
4205.51282045;4204.61538455;3978.46153791;4236.66666667;4995.38461699;2104.48717497;-0.00000896;-0.00000896;3452.17948552;4369.23076951;4366.15384644;4304.48717963;4437.69230811;4271.15384623;4203.07692301;4205.12820506
4206.79487173;4203.97435891;4071.41025607;4234.87179488;5058.97436072;2101.41025190;-0.00000896;-0.00000896;3453.71794705;4398.33333368;4268.46153853;4302.43589758;4240.38461539;4271.66666674;4176.15384602;4205.12820506
4205.89743583;4203.97435891;3814.48717859;4236.79487180;4896.79487319;2100.64102113;-0.00000896;-0.00000896;3452.17948552;4400.89743625;4105.25640998;4302.05128219;4731.66666771;4271.79487187;4202.30769224;4205.12820506
4205.89743583;4202.56410250;4201.41025634;4236.53846154;5318.46154076;2104.74358523;-0.00000896;-0.00000896;3449.48717782;4399.10256445;4172.05128192;4303.84615399;4366.79487208;4271.15384623;4202.69230763;4205.12820506
4206.53846147;4202.82051275;4300.00000014;4236.41025641;5026.66666834;2104.23076472;-0.00000896;-0.00000896;3449.87179321;4371.53846182;4234.10256411;4303.07692322;4470.12820562;4272.17948725;4203.71794865;4205.12820506
4205.64102558;4202.56410250;4465.00000049;4235.38461539;4896.41025780;2106.28204677;-0.00000896;-0.00000896;3450.51281885;4370.64102592;4107.30769203;4302.05128219;4303.20512835;4270.51282059;4202.17948711;4205.12820506
4206.53846147;4201.92307686;4272.56410264;4236.92307693;5025.25641193;2105.64102113;-0.00000896;-0.00000896;3451.02563936;4400.64102599;3975.25640970;4304.61538476;4405.12820548;4270.25641033;4202.94871788;4205.12820506
4206.02564096;4202.69230763;3516.66666514;4235.12820513;5057.82051456;2105.38461087;229.99999153;-0.00000896;3452.56410090;4401.92307727;4239.87179488;4305.51282066;4728.84615489;4270.51282059;4202.43589737;4205.12820506
4205.64102558;4203.33333327;5060.76923251;4235.76923077;5224.23077132;2106.53845703;229.99999153;-0.00000896;3450.25640859;4400.00000035;4696.53846252;4300.89743604;3774.61538365;4272.56410264;4201.41025634;4205.12820506
4205.12820506;4203.07692301;3808.07692218;4235.00000000;4726.15384720;2103.97435446;229.99999153;-0.00000896;3451.15384449;4371.02564131;4143.33333313;4300.25641040;4534.74359037;4271.92307700;4202.69230763;4205.12820506
4206.02564096;4201.53846147;4306.92307707;4235.25641026;5095.12820694;2105.25640574;229.99999153;-0.00000896;3451.92307526;4371.15384644;4039.87179446;4300.89743604;4372.56410285;4270.76923084;4202.43589737;4205.12820506
4203.58974352;4202.43589737;3582.05128067;4236.15384616;5027.82051449;2104.74358523;-0.00000896;-0.00000896;3453.58974193;4398.84615420;4109.10256383;4302.56410271;4829.35897561;4270.89743597;4202.30769224;4205.12820506
4204.35897429;4203.07692301;5090.51282232;4233.97435898;4831.41025766;2105.64102113;-0.00000896;-0.00000896;3451.15384449;4371.02564131;4728.71794976;4301.41025655;4173.97435884;4271.92307700;4205.12820506;4205.12820506
4203.71794865;4201.66666660;4009.61538413;4235.64102564;4929.87179633;2134.35896992;229.99999153;-0.00000896;3452.05128039;4372.30769259;3979.23076868;4302.43589758;4404.48717984;4270.64102571;4176.28205115;4205.12820506
4203.33333327;4201.02564096;4103.84615357;4235.64102564;4989.23077083;2136.28204684;-0.00000896;-0.00000896;3449.61538295;4373.07692336;4238.71794872;4302.56410271;4208.58974352;4270.38461546;4202.30769224;4205.12820506
4203.71794865;4203.20512814;3809.87179397;4234.74358975;4960.76923230;2134.87179043;229.99999153;-0.00000896;3449.35897270;4369.23076951;4041.53846113;4301.79487194;4563.84615454;4271.15384623;4175.51282038;4205.12820506
4204.87179481;4202.69230763;3484.10256251;4235.00000000;5221.15384824;2104.99999549;-0.00000896;-0.00000896;3451.79487013;4368.07692336;4402.69230804;4304.87179501;4567.30769301;4271.53846161;4202.30769224;4205.12820506
4204.99999993;4201.28205122;5290.51282274;4234.87179488;5186.28205330;2108.46153395;229.99999153;-0.00000896;3452.69230603;4371.79487208;4339.10256431;4302.30769245;3878.71794796;4269.61538469;4205.25641019;4205.12820506
4205.64102558;4202.30769224;4400.38461574;4234.23076923;4891.28205268;2103.20512369;-0.00000896;-0.00000896;3451.79487013;4367.56410285;3814.87179397;4304.35897450;4569.23076993;4272.56410264;4202.69230763;4205.12820506
4205.38461532;4202.43589737;3908.71794803;4235.12820513;5222.30769440;2104.48717497;229.99999153;-0.00000896;3453.07692141;4370.51282079;3780.25640929;4302.94871809;4404.74359009;4271.15384623;4202.56410250;4205.12820506
4205.51282045;4202.56410250;3877.05128129;4234.48717949;5193.20513022;2106.02563651;-0.00000896;-0.00000896;3453.07692141;4370.76923105;4335.12820534;4305.25641040;4631.92307776;4271.53846161;4202.05128199;4205.12820506
4205.64102558;4202.82051275;4238.84615385;4235.89743590;4929.35897582;2103.33332882;229.99999153;-0.00000896;3452.69230603;4371.02564131;4627.94871879;4305.76923091;4405.00000035;4271.53846161;4202.17948711;4205.12820506
4205.64102558;4203.07692301;5219.61538670;4235.64102564;5054.74359148;2105.64102113;-0.00000896;-0.00000896;3452.05128039;4371.41025669;4270.00000007;4304.48717963;4171.28205115;4270.76923084;4202.56410250;4205.12820506
4204.87179481;4203.07692301;3979.10256355;4235.89743590;5027.69230936;2103.84614933;229.99999153;-0.00000896;3451.41025475;4372.56410285;3911.41025572;4302.69230784;4663.20512911;4271.41025648;4202.69230763;4205.12820506
4203.97435891;4202.43589737;4107.17948691;4234.48717949;4925.38461685;2103.71794421;-0.00000896;-0.00000896;3451.66666500;4371.15384644;4366.02564131;4302.43589758;4235.64102564;4269.35897443;4202.43589737;4205.12820506
4203.71794865;4203.07692301;3976.66666611;4235.12820513;4995.51282211;2101.92307241;229.99999153;-0.00000896;3452.05128039;4402.56410292;4239.61538462;4300.89743604;4600.00000077;4272.43589751;4202.56410250;4205.12820506
4204.99999993;4202.94871788;4730.12820617;4235.25641026;5159.23077118;2105.76922626;-0.00000896;-0.00000896;3452.94871628;4372.94871823;4668.33333424;4300.38461553;4110.25640998;4271.02564110;4202.05128199;4205.12820506
4205.76923070;4201.92307686;4597.69230846;4234.23076923;4726.53846258;2107.43589292;229.99999153;-0.00000896;3453.46153680;4369.10256438;4140.38461518;4302.94871809;4336.15384637;4272.30769238;4202.69230763;4205.12820506
4204.87179481;4202.17948711;3709.10256299;4235.12820513;5023.20512988;2105.51281600;-0.00000896;-0.00000896;3452.94871628;4365.64102592;4137.30769210;4302.43589758;4595.89743667;4272.30769238;4202.56410250;4205.12820506
4204.61538455;4202.30769224;4141.02564082;4234.10256411;4930.64102710;2107.05127754;229.99999153;-0.00000896;3481.15384456;4370.51282079;4304.35897450;4303.97435912;4660.64102655;4271.66666674;4202.30769224;4205.12820506
4203.71794865;4202.17948711;3973.07692252;4235.89743590;4923.07692454;2106.28204677;-0.00000896;-0.00000896;3480.12820353;4367.82051310;4434.35897478;4301.02564117;4208.20512814;4271.66666674;4204.74358968;4205.12820506
4203.07692301;4203.20512814;5088.07692489;4234.74358975;4989.10256570;2106.66666215;229.99999153;-0.00000896;3479.10256251;4369.23076951;4696.79487277;4301.53846168;4173.46153833;4270.12820520;4202.56410250;4205.12820506
4203.71794865;4203.20512814;4008.97435849;4235.25641026;5252.82051498;2134.74358530;-0.00000896;-0.00000896;3453.46153680;4370.38461567;4234.35897436;4305.12820527;4273.58974366;4269.35897443;4202.94871788;4205.12820506
4203.84615378;4204.87179481;3841.53846071;4235.76923077;4891.02564242;2104.99999549;229.99999153;-0.00000896;3452.43589577;4369.10256438;4234.48717949;4302.56410271;4241.66666667;4269.61538469;4202.69230763;4205.12820506
4203.97435891;4204.23076917;4300.76923091;4235.12820513;5095.25641207;2106.41025190;-0.00000896;-0.00000896;3451.92307526;4372.69230797;4004.87179439;4300.64102578;4633.58974443;4272.05128212;4201.28205122;4205.12820506
4204.61538455;4202.56410250;4630.89743674;4236.15384616;4956.02564256;2102.30768779;229.99999153;-0.00000896;3453.84615218;4401.15384651;4597.82051359;4303.58974373;3971.53846099;4271.28205136;4202.05128199;4205.12820506
4203.71794865;4203.07692301;4927.94871941;4235.64102564;4930.64102710;2103.33332882;-0.00000896;-0.00000896;3452.05128039;4371.92307720;4536.66666730;4303.46153860;4138.46153826;4270.64102571;4202.94871788;4205.12820506
4204.23076917;4201.53846147;3614.23076791;4234.61538462;4791.79487298;2133.46153402;229.99999153;-0.00000896;3450.51281885;4371.15384644;4302.30769245;4300.51282066;4368.07692336;4270.76923084;4203.07692301;4205.12820506
4204.10256404;4202.56410250;4203.97435891;4235.38461539;5221.28205337;2139.48717504;-0.00000896;-0.00000896;3449.87179321;4370.38461567;3747.94871691;4302.17948732;4471.02564152;4270.89743597;4203.07692301;4205.12820506
4204.23076917;4203.33333327;3972.69230714;4236.15384616;5026.15384783;2104.10255959;229.99999153;-0.00000896;3451.15384449;4370.76923105;4239.35897436;4301.92307707;4568.33333403;4271.28205136;4202.43589737;4205.12820506
4205.38461532;4204.35897429;3417.30769057;4235.12820513;4929.48718095;2100.51281600;-0.00000896;-0.00000896;3452.56410090;4370.76923105;4464.10256459;4299.61538476;4498.84615441;4272.94871802;4202.30769224;4205.12820506
4204.99999993;4203.07692301;5092.43589925;4235.64102564;5188.07692510;2074.23076465;-0.00000896;-0.00000896;3453.84615218;4400.51282086;4566.41025711;4304.61538476;4070.76923043;4270.51282059;4202.43589737;4205.12820506
4204.48717942;4201.28205122;3874.10256334;4234.74358975;4831.53846279;2104.61538010;-0.00000896;-0.00000896;3453.84615218;4372.30769259;4105.51282024;4302.94871809;4630.38461622;4269.87179495;4202.43589737;4205.12820506
4204.10256404;4201.41025634;4372.94871823;4236.53846154;5022.43589911;2108.46153395;229.99999153;-0.00000896;3453.46153680;4366.66666695;4301.79487194;4302.56410271;4041.41025600;4271.66666674;4201.15384609;4205.12820506
4204.23076917;4202.05128199;2989.23076659;4236.15384616;5061.92307866;2105.89743138;229.99999153;-0.00000896;3452.30769064;4367.56410285;4008.07692259;4302.17948732;4698.07692405;4272.30769238;4202.69230763;4205.12820506
4204.48717942;4202.43589737;3875.89743514;4236.15384616;4798.58974477;2105.38461087;229.99999153;-0.00000896;3449.99999834;4371.66666695;4465.25641075;4302.69230784;4366.28205156;4272.69230777;4202.05128199;4205.12820506
4205.25641019;4203.33333327;5028.84615552;4236.66666667;5219.10256619;2106.79486728;229.99999153;-0.00000896;3448.20512654;4368.20512849;4470.12820562;4303.33333348;3909.35897367;4270.76923084;4202.56410250;4205.12820506
4205.12820506;4202.94871788;3975.12820458;4235.00000000;4897.94871934;2108.46153395;-0.00000896;-0.00000896;3447.17948552;4370.38461567;4235.64102564;4303.71794886;4436.02564145;4271.79487187;4202.69230763;4205.12820506
4205.64102558;4203.33333327;4302.43589758;4235.25641026;5025.12820680;2107.56409805;-0.00000896;-0.00000896;3449.23076757;4368.97435926;3944.48717887;4302.82051296;4366.53846182;4270.64102571;4201.15384609;4205.12820506
4207.30769224;4202.43589737;3682.17948600;4235.38461539;5126.53846342;2107.05127754;-0.00000896;-0.00000896;3451.41025475;4370.38461567;4172.56410243;4302.17948732;4992.69230929;4271.28205136;4202.43589737;4205.12820506
4206.66666660;4201.66666660;4830.38461664;4234.61538462;4765.38461650;2107.43589292;-0.00000896;-0.00000896;3454.23076757;4371.92307720;4664.74359065;4301.66666681;4170.76923063;4270.51282059;4202.56410250;4205.12820506
4207.17948711;4202.05128199;4366.28205156;4234.10256411;5290.64102787;2107.82050831;-0.00000896;-0.00000896;3454.23076757;4368.33333362;4005.12820465;4302.94871809;4430.89743632;4271.92307700;4202.56410250;4205.12820506
4205.64102558;4202.82051275;3843.84615302;4234.74358975;4860.38461671;2105.12820062;-0.00000896;-0.00000896;3451.79487013;4369.10256438;4267.82051289;4301.15384630;4338.71794893;4270.89743597;4202.17948711;4205.12820506
4204.99999993;4205.38461532;4237.69230770;4234.35897436;5024.23077090;2108.58973908;-0.00000896;-0.00000896;3451.66666500;4371.92307720;3912.82051213;4304.48717963;4597.05128282;4272.56410264;4202.56410250;4205.12820506
4206.41025634;4203.58974352;4205.51282045;4236.41025641;5188.07692510;2108.07691856;-0.00000896;-0.00000896;3451.28204962;4372.94871823;4595.38461615;4301.53846168;4432.30769273;4268.84615392;4205.38461532;4205.12820506
4207.17948711;4203.07692301;4600.64102641;4235.76923077;4792.17948836;2107.94871344;-0.00000896;-0.00000896;3450.89743423;4401.02564138;3907.56410187;4302.82051296;4566.53846224;4269.74358982;4202.43589737;4205.12820506
4206.92307686;4203.58974352;3580.25640887;4235.00000000;5094.23077104;2101.53845703;-0.00000896;-0.00000896;3452.69230603;4399.35897471;4103.07692280;4300.38461553;4566.28205198;4272.82051289;4202.94871788;4205.12820506
4206.53846147;4201.79487173;4471.28205177;4235.25641026;5094.74359155;2103.58973908;-0.00000896;-0.00000896;3480.25640866;4372.17948746;4174.23076910;4303.84615399;4568.97435967;4271.92307700;4203.20512814;4205.12820506
4205.64102558;4203.07692301;4567.43589813;4234.74358975;5088.58974540;2105.89743138;-0.00000896;-0.00000896;3480.12820353;4371.79487208;4662.05128296;4303.84615399;4038.07692266;4270.64102571;4202.94871788;4205.12820506
4206.15384609;4202.82051275;4434.48717991;4236.28205129;4960.25641179;2107.05127754;-0.00000896;-0.00000896;3452.56410090;4368.84615413;4466.53846203;4302.30769245;4041.66666625;4271.79487187;4202.69230763;4205.12820506
4205.64102558;4203.33333327;3678.07692190;4236.79487180;4760.76923188;2106.79486728;-0.00000896;-0.00000896;3479.48717789;4372.30769259;4135.76923056;4303.58974373;4499.87179543;4271.79487187;4202.43589737;4205.12820506
4205.64102558;4204.23076917;4141.53846133;4237.43589744;5154.48718144;2106.28204677;-0.00000896;-0.00000896;3479.74358815;4372.82051310;3846.28205045;4301.66666681;4497.94871851;4271.79487187;4203.20512814;4205.12820506
4204.74358968;4203.84615378;4105.51282024;4237.94871795;4892.17948857;2104.10255959;-0.00000896;-0.00000896;3479.87179328;4398.33333368;4501.41025697;4301.79487194;4700.64102662;4271.53846161;4202.82051275;4205.12820506
4204.99999993;4202.43589737;4825.38461664;4238.58974359;4989.61538622;2105.12820062;-0.00000896;-0.00000896;3453.33333167;4372.05128233;4404.61538497;4304.61538476;3875.51281975;4271.66666674;4174.61538448;4205.12820506
4203.71794865;4202.82051275;4173.20512807;4237.17948718;4961.66666820;2105.51281600;-0.00000896;-0.00000896;3452.94871628;4372.94871823;4107.69230742;4301.92307707;4304.61538476;4271.79487187;4202.17948711;4205.12820506
4203.20512814;4202.56410250;3715.76922966;4238.07692308;4857.94871927;2133.33332889;-0.00000896;-0.00000896;3452.94871628;4368.58974387;4207.43589737;4300.51282066;4465.89743639;4273.46153853;4175.89743576;4205.12820506
4202.94871788;4202.30769224;4072.43589709;4236.66666667;5127.69230957;2104.48717497;-0.00000896;-0.00000896;3451.28204962;4366.92307720;3877.82051206;4302.05128219;4339.48717970;4271.53846161;4202.43589737;4205.12820506
4202.69230763;4201.79487173;4464.61538511;4236.66666667;5025.76923244;2102.43589292;-0.00000896;-0.00000896;3452.69230603;4366.92307720;4632.82051366;4300.51282066;4463.84615434;4273.20512828;4202.43589737;4205.12820506
4202.69230763;4201.66666660;4531.28205191;4236.66666667;4826.66666792;2104.35896985;-0.00000896;-0.00000896;3453.07692141;4371.41025669;3809.74358884;4301.28205142;4273.97435905;4270.51282059;4202.69230763;4205.12820506
4202.43589737;4201.41025634;3582.69230631;4236.15384616;5221.28205337;2103.46153395;-0.00000896;-0.00000896;3449.10256244;4368.71794900;4205.64102558;4302.30769245;4664.35897527;4269.10256418;4202.56410250;4205.12820506
4203.20512814;4202.43589737;4731.53846258;4236.53846154;4862.30769363;2106.28204677;-0.00000896;-0.00000896;3447.69230603;4371.53846182;4370.51282079;4300.12820527;4433.58974401;4273.97435905;4201.92307686;4205.12820506
4203.97435891;4202.30769224;4274.48717956;4237.17948718;5024.35897603;2107.69230318;229.99999153;-0.00000896;3448.84615218;4371.28205156;4530.12820576;4304.23076937;4139.10256390;4271.28205136;4202.30769224;4205.12820506
4204.61538455;4201.92307686;4104.35897408;4235.51282052;4994.23077083;2108.20512369;4.99999104;-0.00000896;3448.58974193;4369.74359003;4271.66666674;4302.56410271;4274.74358982;4272.94871802;4202.82051275;4205.12820506
4204.87179481;4202.43589737;3745.64102460;4236.28205129;4698.07692405;2105.38461087;8278.46154701;-0.00000896;3448.07692141;4372.43589772;4072.69230735;4300.12820527;4398.84615420;4272.43589751;4202.30769224;4205.12820506
4205.38461532;4202.05128199;3648.58974234;4235.51282052;5090.38461720;2102.94871344;-0.00000896;-0.00000896;3448.33333167;4398.84615420;4071.41025607;4303.46153860;4464.61538511;4272.43589751;4202.43589737;4205.12820506
4204.74358968;4203.58974352;4465.25641075;4235.25641026;5120.76923265;2103.07691856;229.99999153;-0.00000896;3447.94871628;4372.30769259;4240.51282052;4301.66666681;4142.30769210;4271.66666674;4202.05128199;4205.12820506
4205.64102558;4202.94871788;4924.35897582;4236.02564103;5058.46154020;2105.89743138;229.99999153;-0.00000896;3449.48717782;4372.69230797;4274.48717956;4301.53846168;4306.02564117;4270.89743597;4202.05128199;4205.12820506
4206.02564096;4201.79487173;4237.43589744;4234.87179488;4926.28205275;2133.84614940;229.99999153;-0.00000896;3450.76922911;4370.89743618;3941.02564040;4302.05128219;4334.74358996;4270.89743597;4203.58974352;4205.12820506
4205.64102558;4201.53846147;3774.35897339;4234.10256411;5122.69230957;2106.02563651;229.99999153;-0.00000896;3452.43589577;4368.46153874;4266.79487187;4301.53846168;4831.66666792;4272.56410264;4202.82051275;4205.12820506
4205.25641019;4202.17948711;4700.51282149;4234.35897436;4955.89743743;2107.30768779;229.99999153;-0.00000896;3453.07692141;4365.51282079;4630.25641109;4301.79487194;3845.12820430;4270.38461546;4202.82051275;4205.12820506
4204.87179481;4203.20512814;4303.97435912;4208.71794865;4961.15384769;2139.99999556;229.99999153;-0.00000896;3453.84615218;4367.30769259;4172.69230756;4304.10256425;4471.41025690;4271.41025648;4202.82051275;4205.12820506
4205.25641019;4203.71794865;4272.17948725;4234.10256411;5024.10256577;2108.33332882;229.99999153;-0.00000896;3451.66666500;4367.05128233;4076.79487145;4307.56410271;4241.15384616;4269.48717956;4202.56410250;4205.12820506
4205.25641019;4204.35897429;4037.17948677;4234.48717949;5127.30769419;2101.53845703;229.99999153;-0.00000896;3452.17948552;4372.05128233;4236.92307693;4302.30769245;4761.02564214;4270.12820520;4202.43589737;4205.12820506
4205.51282045;4205.51282045;4470.64102613;4236.28205129;4859.10256543;2101.15384164;229.99999153;-0.00000896;3452.82051116;4369.87179515;4664.23077014;4302.82051296;4268.71794879;4271.15384623;4205.12820506;4205.12820506
4205.64102558;4203.84615378;3905.64102495;4235.76923077;4927.17948864;2104.48717497;229.99999153;-0.00000896;3452.56410090;4402.56410292;4138.71794851;4304.10256425;4567.17948788;4272.82051289;4202.43589737;4205.12820506
4205.89743583;4201.66666660;4174.61538448;4236.79487180;4862.30769363;2107.17948267;229.99999153;-0.00000896;3450.89743423;4368.46153874;4305.64102578;4300.12820527;4070.76923043;4272.05128212;4202.69230763;4205.12820506
4205.64102558;4202.69230763;3649.35897311;4235.38461539;5061.92307866;2105.38461087;229.99999153;-0.00000896;3452.17948552;4373.20512849;4236.28205129;4303.07692322;4696.66666764;4271.92307700;4202.05128199;4205.12820506
4205.25641019;4203.46153840;5519.61538733;4237.05128206;5057.56410431;2104.87179036;229.99999153;-0.00000896;3449.61538295;4400.76923112;4923.58974505;4302.82051296;3584.10256272;4270.38461546;4176.15384602;4205.12820506
4206.15384609;4203.33333327;3680.38461421;4237.43589744;4897.82051421;2102.69230318;229.99999153;-0.00000896;3447.43589577;4400.38461574;3879.61538385;4303.58974373;4767.05128317;4272.56410264;4202.30769224;4205.12820506
4205.25641019;4204.23076917;4562.82051352;4237.17948718;4995.00000160;2107.05127754;229.99999153;-0.00000896;3448.20512654;4371.02564131;4267.43589751;4300.25641040;4269.23076930;4270.76923084;4202.94871788;4205.12820506
4205.76923070;4202.30769224;4173.20512807;4235.38461539;5092.94871976;2133.58973915;229.99999153;-0.00000896;3446.28204962;4397.94871830;4176.15384602;4301.92307707;4176.15384602;4271.28205136;4202.82051275;4205.12820506
4205.12820506;4202.69230763;4894.61538601;4234.10256411;4989.10256570;2108.33332882;229.99999153;-0.00000896;3449.48717782;4398.58974394;4694.87179585;4301.02564117;3944.99999938;4299.61538476;4201.53846147;4205.12820506
4204.99999993;4201.53846147;4267.30769238;4234.74358975;4928.84615531;2104.23076472;229.99999153;-0.00000896;3451.15384449;4399.48717984;3907.05128136;4304.35897450;4496.53846210;4271.28205136;4202.43589737;4205.12820506
4204.35897429;4202.82051275;3583.58974220;4235.51282052;5192.43589945;2106.53845703;229.99999153;-0.00000896;3451.79487013;4400.12820548;3972.82051227;4302.82051296;4830.00000125;4273.20512828;4202.43589737;4205.12820506
4204.87179481;4201.92307686;3649.61538337;4236.66666667;5058.46154020;2105.12820062;229.99999153;-0.00000896;3450.25640859;4369.48717977;4238.71794872;4304.35897450;4373.07692336;4271.28205136;4201.79487173;4205.12820506
4204.99999993;4201.92307686;3975.76923022;4236.28205129;5091.15384796;2105.38461087;229.99999153;-0.00000896;3449.35897270;4366.28205156;4435.25641068;4302.82051296;4403.71794907;4272.69230777;4202.30769224;4205.12820506
4203.71794865;4201.79487173;5255.25641241;4236.92307693;5058.71795046;2135.64102120;229.99999153;-0.00000896;3449.87179321;4370.12820541;4500.89743646;4304.23076937;3676.15384498;4272.05128212;4202.43589737;4205.12820506
4204.23076917;4201.02564096;4136.92307672;4234.35897436;5088.71795053;2133.33332889;229.99999153;-0.00000896;3448.97435731;4370.12820541;3683.58974241;4303.07692322;4500.00000056;4272.69230777;4202.69230763;4205.12820506
4203.58974352;4202.69230763;4007.30769183;4208.97435891;5089.35897617;2108.46153395;229.99999153;-0.00000896;3448.20512654;4369.10256438;4007.30769183;4302.56410271;4498.46153902;4271.41025648;4202.56410250;4205.12820506
4204.48717942;4202.56410250;3584.35897297;4208.20512814;5055.38461713;2102.94871344;229.99999153;-0.00000896;3450.12820346;4372.69230797;4338.46153867;4301.66666681;4437.43589786;4272.56410264;4202.56410250;4205.12820506
4204.23076917;4201.79487173;4071.79487145;4234.61538462;4831.15384741;2134.48717504;229.99999153;-0.00000896;3449.61538295;4368.46153874;4504.10256466;4301.53846168;4398.20512856;4271.28205136;4202.56410250;4205.12820506
4205.12820506;4202.94871788;4141.15384595;4236.15384616;5089.23077104;2105.89743138;229.99999153;-0.00000896;3448.84615218;4368.33333362;4109.10256383;4304.23076937;4235.00000000;4272.17948725;4202.43589737;4205.12820506
4205.89743583;4204.23076917;3744.23076819;4235.00000000;4830.89743715;2108.07691856;229.99999153;-0.00000896;3450.51281885;4368.58974387;4302.56410271;4302.94871809;4600.64102641;4272.43589751;4202.56410250;4205.12820506
4205.89743583;4203.07692301;4566.53846224;4235.51282052;4957.17948871;2106.53845703;229.99999153;-0.00000896;3479.61538302;4365.38461567;4367.17948746;4301.79487194;3941.53846092;4272.43589751;4202.69230763;4205.12820506
4205.38461532;4203.58974352;4307.43589758;4234.35897436;4925.64102710;2104.23076472;229.99999153;-0.00000896;3480.25640866;4366.15384644;4203.84615378;4303.84615399;4076.28205094;4270.00000007;4203.07692301;4205.12820506
4204.61538455;4203.33333327;4140.76923056;4234.35897436;5061.66666841;2106.15384164;229.99999153;-0.00000896;3481.79487020;4368.33333362;4240.12820513;4303.58974373;4860.25641158;4271.92307700;4202.82051275;4205.12820506
4203.20512814;4203.46153840;4598.71794949;4235.12820513;4961.02564256;2108.07691856;229.99999153;-0.00000896;3480.38461379;4372.30769259;4663.46153937;4302.82051296;4104.87179460;4271.41025648;4202.82051275;4205.12820506
4203.33333327;4203.33333327;4142.69230749;4234.74358975;5023.71795039;2104.74358523;229.99999153;-0.00000896;3449.87179321;4371.66666695;4201.79487173;4303.71794886;4399.87179522;4274.23076930;4175.38461525;4205.12820506
4203.20512814;4204.23076917;3846.28205045;4235.51282052;4956.79487333;2107.43589292;-0.00000896;-0.00000896;3447.17948552;4371.79487208;4237.69230770;4300.38461553;4271.79487187;4272.05128212;4202.56410250;4205.12820506
4204.61538455;4203.84615378;4240.38461539;4236.28205129;4963.07692461;2105.64102113;-0.00000896;-0.00000896;3449.99999834;4370.12820541;4534.74359037;4301.28205142;4595.12820590;4272.30769238;4202.69230763;4205.12820506
4204.99999993;4203.58974352;4537.30769294;4234.23076923;5091.79487361;2102.56409805;229.99999153;-0.00000896;3450.89743423;4401.15384651;4307.05128219;4306.79487194;3873.58974283;4272.82051289;4202.56410250;4205.12820506
4205.38461532;4202.82051275;4302.30769245;4234.74358975;5025.25641193;2106.79486728;-0.00000896;-0.00000896;3453.20512654;4371.66666695;4398.84615420;4300.38461553;4170.12820499;4270.89743597;4174.99999986;4205.12820506
4203.46153840;4203.07692301;3581.15384477;4234.87179488;4827.05128331;2106.92307241;-0.00000896;-0.00000896;3453.46153680;4367.82051310;4171.02564089;4302.17948732;4370.64102592;4272.17948725;4202.17948711;4205.12820506
4204.61538455;4202.69230763;3975.25640970;4235.51282052;5153.58974554;2107.82050831;-0.00000896;-0.00000896;3451.28204962;4368.97435926;4142.94871774;4304.35897450;4403.97435933;4272.82051289;4202.69230763;4205.12820506
4205.38461532;4202.94871788;3780.64102467;4235.89743590;4960.64102717;2105.76922626;-0.00000896;-0.00000896;3449.23076757;4400.12820548;4496.79487235;4301.41025655;4562.69230839;4272.82051289;4202.69230763;4205.12820506
4205.51282045;4203.46153840;4795.25641144;4235.12820513;5055.89743764;2106.15384164;-0.00000896;-0.00000896;3448.46153680;4400.25641061;4634.87179571;4301.79487194;3909.48717880;4271.02564110;4203.33333327;4205.12820506
4206.41025634;4202.69230763;4139.99999980;4235.25641026;5058.71795046;2105.51281600;-0.00000896;-0.00000896;3449.61538295;4398.97435933;3943.20512758;4303.33333348;4469.61538511;4272.69230777;4201.53846147;4205.12820506
4207.82051275;4202.17948711;3779.23076826;4234.61538462;4956.15384769;2106.28204677;-0.00000896;-0.00000896;3453.33333167;4367.56410285;4302.69230784;4301.41025655;4566.41025711;4273.20512828;4202.17948711;4205.12820506
4207.05128199;4201.28205122;4568.97435967;4209.10256404;5154.61538656;2105.38461087;-0.00000896;-0.00000896;3481.02563943;4369.35897464;4108.07692280;4301.02564117;4338.33333355;4273.33333341;4202.56410250;4205.12820506
4205.38461532;4201.79487173;4596.41025718;4208.84615378;5025.64102731;2105.64102113;-0.00000896;-0.00000896;3482.56410097;4371.79487208;4502.05128261;4303.97435912;4004.23076875;4272.69230777;4202.56410250;4205.12820506
4205.38461532;4201.79487173;4562.30769301;4235.25641026;4926.15384762;2105.76922626;-0.00000896;-0.00000896;3479.87179328;4366.15384644;4463.97435946;4302.56410271;4071.66666632;4271.15384623;4176.02564089;4205.12820506
4205.12820506;4202.05128199;3843.71794789;4235.12820513;4928.84615531;2107.94871344;-0.00000896;-0.00000896;3452.30769064;4367.69230797;4168.20512807;4300.25641040;4465.38461587;4272.17948725;4202.69230763;4205.12820506
4203.97435891;4203.46153840;4104.10256383;4236.53846154;5091.66666848;2106.92307241;-0.00000896;-0.00000896;3479.61538302;4367.30769259;3972.05128150;4303.58974373;4697.05128303;4269.74358982;4202.82051275;4205.12820506
4204.23076917;4204.10256404;4299.74358989;4235.25641026;4993.97436058;2104.87179036;-0.00000896;-0.00000896;3453.84615218;4372.30769259;4565.51282121;4303.20512835;4437.05128247;4271.28205136;4202.05128199;4205.12820506
4204.10256404;4203.20512814;4240.00000000;4234.74358975;5091.92307873;2136.79486735;-0.00000896;-0.00000896;3453.71794705;4367.56410285;4563.71794942;4301.92307707;4305.51282066;4271.53846161;4202.43589737;4205.12820506
4204.61538455;4204.61538455;4661.15384706;4236.15384616;4827.05128331;2136.28204684;-0.00000896;-0.00000896;3452.30769064;4366.41025669;3939.87179425;4303.20512835;4497.17948774;4272.17948725;4202.30769224;4205.12820506
4206.53846147;4204.87179481;3355.25640838;4236.15384616;4930.89743736;2102.94871344;-0.00000896;-0.00000896;3450.64102398;4372.69230797;4206.53846147;4302.82051296;4532.69230832;4272.43589751;4202.82051275;4205.12820506
4208.20512814;4203.97435891;4405.25641061;4238.46153847;5125.00000188;2100.89743138;-0.00000896;-0.00000896;3451.92307526;4373.20512849;4102.94871767;4303.20512835;4633.07692391;4273.20512828;4202.69230763;4205.12820506
4207.30769224;4203.58974352;4468.71794921;4239.87179488;5025.76923244;2106.53845703;-0.00000896;-0.00000896;3448.33333167;4403.33333368;4533.58974422;4303.71794886;4497.05128261;4271.28205136;4202.56410250;4205.12820506
4208.58974352;4203.33333327;4504.10256466;4238.71794872;4896.28205268;2133.84614940;-0.00000896;-0.00000896;3447.94871628;4370.76923105;3775.12820416;4301.92307707;4432.82051324;4272.56410264;4203.58974352;4205.12820506
4208.84615378;4203.07692301;3355.76922890;4237.17948718;4959.10256564;2104.87179036;-0.00000896;-0.00000896;3449.48717782;4369.61538490;4141.66666646;4303.58974373;4765.89743701;4271.28205136;4202.94871788;4205.12820506
4208.07692301;4202.69230763;4828.07692433;4237.69230770;5253.20513036;2102.94871344;-0.00000896;-0.00000896;3451.28204962;4371.02564131;4537.17948781;4304.10256425;3844.99999917;4270.89743597;4202.56410250;4205.12820506
4207.17948711;4203.46153840;4267.56410264;4235.51282052;4863.07692440;2103.84614933;-0.00000896;-0.00000896;3449.61538295;4398.46153881;4176.02564089;4303.20512835;4465.64102613;4271.53846161;4202.05128199;4205.12820506
4206.15384609;4203.97435891;4365.51282079;4237.30769231;5090.12820694;2103.20512369;-0.00000896;-0.00000896;3421.41025468;4370.89743618;3976.92307637;4300.89743604;4240.64102564;4273.07692315;4202.56410250;4205.12820506
4204.74358968;4203.20512814;3680.76922959;4236.53846154;5087.56410437;2107.56409805;-0.00000896;-0.00000896;3421.41025468;4371.41025669;4176.02564089;4302.69230784;4992.56410417;4272.05128212;4202.43589737;4205.12820506
4204.61538455;4203.97435891;4891.02564242;4234.87179488;4861.66666799;2107.56409805;-0.00000896;-0.00000896;3447.43589577;4372.30769259;4630.51282135;4300.64102578;4105.89743562;4272.56410264;4204.61538455;4205.12820506
4204.87179481;4203.07692301;4469.87179536;4208.84615378;5225.76923286;2106.92307241;229.99999153;-0.00000896;3449.10256244;4400.64102599;4104.99999973;4302.05128219;4236.02564103;4270.51282059;4201.79487173;4205.12820506
4205.89743583;4201.79487173;4007.82051234;4207.82051275;4793.33333452;2101.15384164;229.99999153;-0.00000896;3448.71794705;4371.92307720;4271.02564110;4302.43589758;4234.23076923;4272.82051289;4202.17948711;4205.12820506
4205.25641019;4202.69230763;4004.87179439;4234.61538462;5057.82051456;2075.64102106;229.99999153;-0.00000896;3448.33333167;4373.07692336;3939.23076861;4302.69230784;4530.25641089;4270.89743597;4202.30769224;4205.12820506
4206.02564096;4202.17948711;3124.61538226;4234.48717949;5024.35897603;2104.87179036;229.99999153;-0.00000896;3448.58974193;4399.74359009;4437.82051324;4303.58974373;4668.46153937;4273.33333341;4202.17948711;4205.12820506
4205.89743583;4201.66666660;5154.61538656;4234.48717949;5088.33333514;2133.71794427;0.25640130;-0.00000896;3451.66666500;4398.58974394;4438.33333375;4301.79487194;3710.76922966;4269.48717956;4202.56410250;4205.12820506
4206.15384609;4202.43589737;4501.66666723;4234.35897436;4924.35897582;2136.15384171;-0.00000896;-0.00000896;3452.94871628;4368.07692336;3941.41025579;4304.35897450;4597.17948795;4273.07692315;4202.56410250;4205.12820506
4205.38461532;4176.28205115;4072.94871761;4234.10256411;4991.28205288;2135.76922633;229.99999153;-0.00000896;3480.76922917;4368.33333362;4207.30769224;4301.02564117;4171.02564089;4270.51282059;4202.43589737;4205.12820506
4205.38461532;4201.41025634;3907.43589674;4207.94871788;5060.89743764;2104.48717497;-0.00000896;-0.00000896;3483.58974200;4367.05128233;4203.33333327;4305.89743604;4863.07692440;4272.17948725;4202.82051275;4205.12820506
4203.20512814;4201.41025634;4861.41025773;4234.10256411;5060.38461713;2103.20512369;229.99999153;-0.00000896;3481.15384456;4368.84615413;4664.74359065;4302.05128219;4004.48717900;4273.84615392;4202.82051275;4205.12820506
4202.82051275;4202.69230763;4300.89743604;4235.76923077;5093.58974540;2108.20512369;-0.00000896;-0.00000896;3451.15384449;4371.53846182;4175.89743576;4302.30769245;4299.87179501;4272.17948725;4201.92307686;4205.12820506
4204.10256404;4203.84615378;4069.99999966;4237.17948718;4988.84615545;2134.99999556;229.99999153;-0.00000896;3450.64102398;4372.69230797;4142.69230749;4302.17948732;4401.53846189;4271.92307700;4203.20512814;4205.12820506
4204.48717942;4203.46153840;4105.89743562;4238.20512821;4893.46153986;2133.33332889;-0.00000896;-0.00000896;3448.46153680;4399.74359009;4471.53846203;4301.79487194;4367.56410285;4271.66666674;4202.43589737;4205.12820506
4205.12820506;4203.20512814;4536.02564165;4237.17948718;5061.53846328;2105.38461087;229.99999153;-0.00000896;3451.92307526;4370.38461567;4272.69230777;4303.58974373;3979.23076868;4270.89743597;4202.56410250;4205.12820506
4204.35897429;4202.17948711;4595.76923154;4237.56410257;5122.94871983;2101.53845703;-0.00000896;-0.00000896;3452.82051116;4373.20512849;4208.46153840;4303.71794886;4302.30769245;4272.43589751;4202.17948711;4205.12820506
4202.94871788;4201.41025634;3615.76922945;4235.38461539;4924.61538608;2105.12820062;229.99999153;-0.00000896;3452.30769064;4398.33333368;4140.64102544;4302.43589758;4434.74359016;4271.15384623;4202.30769224;4205.12820506
4202.56410250;4201.66666660;4206.92307686;4236.41025641;5192.43589945;2104.61538010;-0.00000896;-0.00000896;3449.48717782;4370.51282079;3875.25640950;4301.92307707;4533.20512883;4271.28205136;4202.43589737;4205.12820506
4202.82051275;4201.79487173;3419.23076750;4237.05128206;5057.56410431;2107.69230318;229.99999153;-0.00000896;3446.79487013;4369.74359003;4238.07692308;4303.71794886;4727.94871899;4270.89743597;4202.17948711;4205.12820506
4203.46153840;4202.17948711;5286.02564325;4237.17948718;5054.48718123;2107.43589292;-0.00000896;-0.00000896;3446.53845987;4368.58974387;4371.15384644;4302.69230784;3512.43589591;4273.97435905;4202.17948711;4205.12820506
4204.99999993;4202.43589737;3447.94871628;4234.48717949;5058.33333507;2108.46153395;229.99999153;-0.00000896;3447.82051116;4368.33333362;4106.41025614;4304.48717963;4728.33333438;4271.92307700;4201.92307686;4205.12820506
4204.48717942;4201.53846147;4138.58974339;4235.76923077;4797.94871913;2105.25640574;-0.00000896;-0.00000896;3449.87179321;4366.28205156;4500.64102620;4301.41025655;4434.87179529;4271.02564110;4202.43589737;4205.12820506
4204.48717942;4202.69230763;4206.02564096;4208.46153840;4993.97436058;2103.07691856;229.99999153;-0.00000896;3452.43589577;4369.74359003;4009.87179439;4304.61538476;4237.30769231;4272.56410264;4202.17948711;4205.12820506
4204.35897429;4202.43589737;4858.58974491;4235.12820513;5056.15384789;2104.23076472;-0.00000896;-0.00000896;3450.38461372;4368.07692336;4437.69230811;4303.07692322;4069.74358940;4271.79487187;4202.17948711;4205.12820506
4204.23076917;4203.07692301;3814.35897346;4236.02564103;4928.97436044;2106.66666215;229.99999153;-0.00000896;3449.87179321;4372.43589772;3840.51281968;4303.33333348;4596.41025718;4273.07692315;4202.56410250;4205.12820506
4205.64102558;4202.43589737;3516.66666514;4235.25641026;5055.38461713;2105.38461087;-0.00000896;-0.00000896;3448.97435731;4372.30769259;4340.38461560;4305.00000014;4340.00000021;4272.82051289;4202.43589737;4205.12820506
4205.38461532;4204.10256404;4204.74358968;4236.02564103;4994.35897596;2106.79486728;229.99999153;-0.00000896;3450.76922911;4370.51282079;4300.89743604;4301.28205142;4336.02564124;4271.41025648;4202.30769224;4205.12820506
4205.64102558;4203.20512814;4305.00000014;4234.35897436;4990.00000160;2103.33332882;-0.00000896;-0.00000896;3453.20512654;4367.56410285;4566.92307762;4303.46153860;4103.84615357;4272.69230777;4202.43589737;4205.12820506
4205.51282045;4201.02564096;4072.43589709;4234.74358975;4995.89743750;2105.38461087;229.99999153;-0.00000896;3454.23076757;4371.66666695;4137.82051262;4302.56410271;4662.56410347;4272.56410264;4203.33333327;4205.12820506
4203.84615378;4201.92307686;3545.64102419;4234.10256411;4992.82051442;2103.58973908;-0.00000896;-0.00000896;3479.10256251;4399.74359009;4432.17948760;4303.84615399;4306.02564117;4272.43589751;4202.30769224;4205.12820506
4204.48717942;4202.56410250;4632.82051366;4235.76923077;4891.66666806;2107.56409805;229.99999153;-0.00000896;3451.15384449;4368.84615413;4142.56410236;4274.35897443;4071.02564068;4273.33333341;4202.69230763;4205.12820506
4204.23076917;4202.94871788;4238.46153847;4236.15384616;5061.02564277;2106.41025190;-0.00000896;-0.00000896;3450.76922911;4368.71794900;4007.69230721;4305.00000014;4466.66666716;4271.41025648;4202.30769224;4205.12820506
4205.76923070;4202.69230763;4467.43589793;4236.41025641;5060.51282225;2105.25640574;229.99999153;-0.00000896;3452.56410090;4372.69230797;4075.76923043;4305.89743604;4433.20512863;4270.51282059;4201.92307686;4205.12820506
4205.12820506;4202.69230763;3480.38461379;4235.76923077;5024.74359142;2107.43589292;-0.00000896;-0.00000896;3479.35897276;4371.92307720;4238.07692308;4301.66666681;4798.33333452;4272.17948725;4202.43589737;4205.12820506
4204.87179481;4202.43589737;4733.46153951;4235.64102564;4956.41025794;2106.41025190;229.99999153;-0.00000896;3481.02563943;4369.35897464;4695.00000098;4304.35897450;3583.20512682;4271.02564110;4202.43589737;4205.12820506
4203.33333327;4203.07692301;3979.23076868;4236.02564103;4924.10256557;2102.94871344;-0.00000896;-0.00000896;3452.43589577;4371.02564131;4169.74358961;4301.66666681;4468.58974408;4270.51282059;4202.94871788;4205.12820506
4203.97435891;4201.53846147;4037.17948677;4235.76923077;4994.74359135;2108.07691856;8243.84616233;-0.00000896;3451.66666500;4369.10256438;4267.43589751;4301.79487194;4041.41025600;4272.43589751;4202.17948711;4205.12820506
4204.61538455;4202.94871788;4005.64102516;4237.05128206;5026.92307859;2138.07691863;-0.00000896;-0.00000896;3447.94871628;4398.46153881;4399.10256445;4304.74358989;4635.25641109;4273.20512828;4202.43589737;4205.12820506
4204.87179481;4203.20512814;4503.20512876;4235.51282052;5191.92307894;2133.33332889;229.99999153;-0.00000896;3450.89743423;4372.05128233;4763.84615496;4304.61538476;4269.61538469;4272.43589751;4202.82051275;4205.12820506
4204.10256404;4204.35897429;4337.43589765;4236.41025641;4990.76923237;2100.64102113;229.99999153;-0.00000896;3451.79487013;4373.07692336;3945.64102502;4303.71794886;4238.20512821;4299.61538476;4203.58974352;4205.12820506
4204.87179481;4203.07692301;3844.61538379;4236.41025641;5258.33333549;2074.10255952;229.99999153;-0.00000896;3453.33333167;4371.28205156;3939.48717887;4303.20512835;4694.35897534;4272.82051289;4202.05128199;4205.12820506
4204.23076917;4202.05128199;3938.84615322;4236.15384616;4831.79487305;2103.20512369;229.99999153;-0.00000896;3451.15384449;4369.10256438;4366.53846182;4302.69230784;4405.00000035;4268.97435905;4201.15384609;4205.12820506
4204.61538455;4203.46153840;4241.79487180;4236.66666667;4995.38461699;2107.30768779;-0.00000896;-0.00000896;3449.23076757;4373.07692336;4464.23076972;4305.51282066;4273.97435905;4271.79487187;4202.30769224;4205.12820506
4204.99999993;4202.43589737;4141.53846133;4238.20512821;4897.05128344;2107.30768779;-0.00000896;-0.00000896;3446.79487013;4372.56410285;4173.46153833;4301.02564117;4373.20512849;4271.15384623;4174.87179474;4205.12820506
4204.87179481;4202.94871788;4072.17948684;4236.79487180;4992.69230929;2134.23076479;-0.00000896;-0.00000896;3420.89743416;4371.02564131;3814.99999910;4302.56410271;4761.28205240;4273.20512828;4202.56410250;4205.12820506
4204.23076917;4203.33333327;4043.84615343;4236.92307693;5061.28205302;2103.97435446;-0.00000896;-0.00000896;3420.38461365;4370.25641054;4601.92307769;4301.41025655;4076.28205094;4270.76923084;4202.69230763;4205.12820506
4206.02564096;4202.05128199;3875.76923001;4234.74358975;4928.33333480;2106.15384164;-0.00000896;-0.00000896;3447.43589577;4369.48717977;4430.76923119;4304.10256425;4529.74359037;4272.43589751;4202.69230763;4205.12820506
4204.87179481;4202.94871788;4403.07692343;4234.35897436;5220.12820722;2107.17948267;-0.00000896;-0.00000896;3450.64102398;4370.89743618;4562.17948788;4303.46153860;3748.97435794;4270.38461546;4202.05128199;4205.12820506
4204.35897429;4203.33333327;4202.94871788;4234.48717949;4798.58974477;2107.94871344;-0.00000896;-0.00000896;3450.76922911;4367.56410285;4069.74358940;4301.28205142;4237.43589744;4271.41025648;4202.43589737;4205.12820506
4204.35897429;4203.20512814;3549.74358829;4209.10256404;4923.84615531;2104.74358523;-0.00000896;-0.00000896;3452.17948552;4370.12820541;4432.94871837;4302.05128219;4401.92307727;4271.02564110;4201.92307686;4205.12820506
4204.61538455;4202.30769224;4239.23076923;4234.23076923;5124.87179675;2108.07691856;-0.00000896;-0.00000896;3451.53845987;4367.56410285;4138.97435877;4302.56410271;4370.00000028;4271.02564110;4176.15384602;4205.12820506
4204.87179481;4202.30769224;4365.25641054;4235.76923077;4863.33333466;2133.46153402;-0.00000896;-0.00000896;3452.17948552;4369.23076951;4503.84615441;4305.25641040;4599.61538538;4270.51282059;4201.92307686;4205.12820506
4204.74358968;4202.82051275;4596.15384692;4234.61538462;4798.71794990;2106.02563651;-0.00000896;-0.00000896;3451.92307526;4371.66666695;3939.10256348;4302.43589758;4235.38461539;4271.79487187;4203.71794865;4205.12820506
4204.35897429;4202.82051275;3617.56410125;4235.38461539;5287.17948941;2138.20512376;-0.00000896;-0.00000896;3450.76922911;4369.35897464;4071.53846119;4302.56410271;4797.69230888;4272.05128212;4202.05128199;4205.12820506
4203.58974352;4203.84615378;4466.53846203;4235.38461539;4700.64102662;2133.46153402;-0.00000896;-0.00000896;3451.28204962;4367.05128233;4468.97435946;4300.89743604;4339.48717970;4272.69230777;4202.56410250;4205.12820506
4204.99999993;4203.84615378;4336.53846175;4235.25641026;4958.97436051;2105.89743138;-0.00000896;-0.00000896;3451.15384449;4372.30769259;4433.84615427;4303.71794886;4300.76923091;4270.12820520;4202.30769224;4205.12820506
4203.58974352;4203.07692301;4239.35897436;4236.15384616;4961.15384769;2103.46153395;-0.00000896;-0.00000896;3451.41025475;4370.00000028;3941.92307630;4303.33333348;4241.28205129;4272.69230777;4203.07692301;4205.12820506
4204.87179481;4202.69230763;3646.28205004;4235.38461539;5158.84615580;2107.69230318;-0.00000896;-0.00000896;3451.15384449;4373.20512849;4109.23076896;4302.30769245;4960.51282205;4270.89743597;4202.17948711;4205.12820506
4205.38461532;4203.33333327;5094.48718130;4236.28205129;4892.05128344;2107.05127754;-0.00000896;-0.00000896;3449.74358808;4372.05128233;4695.76923175;4302.30769245;4204.61538455;4271.79487187;4205.25641019;4205.12820506
4205.51282045;4204.23076917;3749.35897332;4237.43589744;4829.48718074;2103.46153395;-0.00000896;-0.00000896;3447.56410090;4371.28205156;4208.07692301;4304.10256425;4431.66666709;4270.76923084;4202.30769224;4205.12820506
4205.25641019;4204.74358968;4373.07692336;4236.92307693;5153.46154041;2101.41025190;-0.00000896;-0.00000896;3449.87179321;4372.82051310;3978.71794817;4301.66666681;4501.66666723;4271.66666674;4202.30769224;4205.12820506
4204.74358968;4203.84615378;3946.15384553;4237.43589744;4961.79487333;2103.84614933;-0.00000896;-0.00000896;3447.69230603;4372.56410285;4240.12820513;4300.64102578;4628.33333417;4271.92307700;4202.30769224;4205.12820506
4205.12820506;4202.56410250;4536.28205191;4236.15384616;5090.38461720;2104.87179036;-0.00000896;-0.00000896;3451.28204962;4369.23076951;4701.15384713;4304.48717963;4135.51282031;4271.53846161;4202.17948711;4205.12820506
4204.23076917;4202.30769224;4238.58974359;4235.25641026;4895.00000139;2103.07691856;-0.00000896;-0.00000896;3452.69230603;4368.07692336;3974.23076868;4303.20512835;4267.94871802;4272.05128212;4205.51282045;4205.12820506
4203.71794865;4202.05128199;4201.92307686;4234.74358975;5192.69230971;2106.53845703;-0.00000896;-0.00000896;3452.69230603;4371.02564131;4307.30769245;4302.43589758;4469.61538511;4273.46153853;4202.17948711;4205.12820506
4202.69230763;4201.79487173;3386.53845974;4235.51282052;5054.48718123;2107.30768779;-0.00000896;-0.00000896;3450.25640859;4367.82051310;4137.30769210;4303.46153860;4401.15384651;4271.79487187;4202.30769224;4205.12820506
4204.23076917;4202.82051275;3316.79486985;4235.25641026;5316.92307922;2108.46153395;229.99999153;-0.00000896;3447.69230603;4371.15384644;4102.69230742;4301.28205142;4693.58974457;4270.51282059;4202.17948711;4205.12820506
4204.99999993;4202.17948711;5252.05128421;4235.89743590;5026.15384783;2103.97435446;7.94870899;-0.00000896;3421.15384442;4368.20512849;4727.69230874;4301.53846168;3551.28204983;4273.33333341;4201.79487173;4205.12820506
4204.61538455;4203.71794865;3512.94871642;4235.51282052;4792.69230888;2107.94871344;105.89742715;-0.00000896;3448.97435731;4369.23076951;3977.17948663;4305.89743604;4728.20512925;4272.69230777;4202.43589737;4205.12820506
4205.12820506;4203.07692301;4205.38461532;4234.87179488;4894.35897575;2106.41025190;-0.00000896;-0.00000896;3451.15384449;4367.69230797;4365.76923105;4301.15384630;4044.87179446;4271.02564110;4203.97435891;4205.12820506
4204.10256404;4203.58974352;3743.84615281;4235.25641026;5028.46154013;2108.07691856;229.99999153;-0.00000896;3451.79487013;4368.20512849;4268.84615392;4303.20512835;4760.51282163;4270.12820520;4202.82051275;4205.12820506
4204.10256404;4204.10256404;5319.61538691;4233.97435898;5159.35897631;2108.46153395;229.99999153;-0.00000896;3450.76922911;4340.00000021;4798.58974477;4302.69230784;3420.64102391;4270.38461546;4201.28205122;4205.12820506
4203.07692301;4203.46153840;3845.12820430;4235.89743590;4995.12820673;2106.28204677;229.99999153;-0.00000896;3450.12820346;4367.17948746;3779.23076826;4302.69230784;4796.53846272;4272.69230777;4201.66666660;4205.12820506
4204.48717942;4203.20512814;4206.79487173;4235.12820513;5095.25641207;2107.56409805;229.99999153;-0.00000896;3451.66666500;4400.12820548;3907.56410187;4302.43589758;4530.64102627;4270.12820520;4202.05128199;4205.12820506
4204.10256404;4204.10256404;3908.07692239;4234.61538462;5027.56410424;2134.10255966;229.99999153;-0.00000896;3450.64102398;4398.97435933;4400.12820548;4304.23076937;4600.64102641;4270.64102571;4202.17948711;4205.12820506
4205.12820506;4203.97435891;4466.28205177;4235.51282052;4923.58974505;2106.15384164;229.99999153;-0.00000896;3449.23076757;4398.07692343;4596.15384692;4302.17948732;4072.94871761;4272.17948725;4202.17948711;4205.12820506
4205.38461532;4203.71794865;4274.35897443;4236.15384616;5029.35897603;2106.02563651;229.99999153;-0.00000896;3448.84615218;4371.79487208;4040.38461497;4299.61538476;4365.76923105;4270.64102571;4202.43589737;4205.12820506
4206.28205122;4203.07692301;3222.05127990;4235.38461539;5089.35897617;2107.94871344;229.99999153;-0.00000896;3448.58974193;4369.48717977;4237.56410257;4303.20512835;4534.23076986;4272.94871802;4202.69230763;4205.12820506
4205.64102558;4202.30769224;4530.64102627;4235.64102564;5095.25641207;2104.99999549;229.99999153;-0.00000896;3451.15384449;4369.87179515;4500.25641082;4300.25641040;4270.38461546;4272.56410264;4202.94871788;4205.12820506
4204.74358968;4201.41025634;4436.02564145;4234.10256411;4962.56410410;2105.38461087;229.99999153;-0.00000896;3452.05128039;4399.87179522;4335.12820534;4302.56410271;4042.94871754;4272.43589751;4202.43589737;4205.12820506
4205.12820506;4201.92307686;4205.25641019;4208.58974352;4929.87179633;2134.35896992;229.99999153;-0.00000896;3450.38461372;4369.23076951;4338.33333355;4301.28205142;4173.71794858;4271.28205136;4203.71794865;4205.12820506
4203.58974352;4203.20512814;3321.79486985;4234.35897436;5287.30769454;2140.51281607;229.99999153;-0.00000896;3451.15384449;4340.00000021;4008.97435849;4303.33333348;4897.43589883;4271.92307700;4202.17948711;4205.12820506
4203.71794865;4205.12820506;4996.02564263;4209.10256404;4962.69230922;2106.15384164;229.99999153;-0.00000896;3451.02563936;4367.94871823;4732.30769335;4305.51282066;3846.15384532;4271.53846161;4202.30769224;4205.12820506
4204.35897429;4205.51282045;4502.56410312;4236.15384616;5128.07692496;2102.17948267;229.99999153;-0.00000896;3451.02563936;4370.89743618;4041.79487138;4300.51282066;4436.53846196;4272.43589751;4202.30769224;4205.12820506
