Gyro-X;Gyro-Z;AF3;Gyro-Y;T7;Acc-X;Pz;QualityData_1;QualityData_2;Acc-Z;Acc-Y;T8;Mag-X;AF4;Mag-Z;Mag-Y;Mag-X;Gyro-X 
4203.71794865;4207.05128199;5093.33333514;4235.38461539;3643.71794747;2232.05127782;229.99999153;-0.00000896;3217.69230554;4366.79487208;3449.87179321;4300.76923091;3419.35897263;4301.28205142;4201.15384609;4205.12820506
4172.94871781;4205.25641019;5190.38461740;4235.51282052;4040.64102523;2206.66666236;229.99999153;-0.00000896;3184.61538240;4372.82051310;3453.46153680;4274.48717956;3354.74358787;4303.20512835;4202.17948711;4172.30769217
4171.28205115;4203.20512814;5155.76923272;4234.74358975;3711.02563992;2233.46153423;229.99999153;-0.00000896;3125.51281815;4366.79487208;3415.12820339;4299.74358989;3381.28204948;4301.66666681;4202.69230763;4172.30769217
4170.51282038;4201.53846147;5322.05128435;4208.46153840;3646.02563978;2205.25640595;229.99999153;-0.00000896;3119.23076687;4369.61538490;3319.61538267;4301.41025655;3319.87179293;4302.94871809;4202.30769224;4172.30769217
4172.05128192;4174.74358961;5127.82051470;4207.69230763;3676.02563985;2202.43589313;229.99999153;-0.00000896;3119.87179251;4371.92307720;3450.25640859;4300.51282066;3122.69230533;4302.30769245;4202.05128199;4172.30769217
4172.69230756;4171.79487166;5390.51282295;4206.41025634;3747.30769127;2205.12820082;229.99999153;-0.00000896;3121.79486944;4368.84615413;3420.38461365;4300.51282066;3322.05128011;4303.20512835;4202.05128199;4172.30769217
4174.23076910;4171.28205115;5090.64102745;4204.87179481;3646.41025516;2232.05127782;229.99999153;-0.00000896;3124.48717713;4340.00000021;3447.69230603;4299.87179501;3283.71794671;4303.46153860;4201.53846147;4172.30769217
4173.20512807;4171.15384602;5190.12820715;4204.48717942;3679.74358857;2232.17948294;229.99999153;-0.00000896;3151.15384386;4337.43589765;3384.99999820;4274.10256418;3317.43589549;4305.38461553;4201.79487173;4172.30769217
4173.58974345;4170.38461525;5091.92307873;4203.84615378;3449.48717782;2231.92307269;229.99999153;-0.00000896;3121.79486944;4336.66666688;3319.10256216;4274.35897443;3384.74358794;4303.07692322;4201.41025634;4172.30769217
4173.33333320;4173.07692294;5318.07692537;4203.33333327;3647.30769106;2204.87179057;229.99999153;-0.00000896;3118.46153610;4335.12820534;3414.61538288;4300.38461553;3224.10256195;4274.74358982;4202.82051275;4172.30769217
4174.74358961;4174.10256397;5126.66666855;4202.94871788;3710.38461428;2235.38461115;229.99999153;-0.00000896;3091.53845911;4333.97435919;3385.89743409;4299.61538476;3315.51281857;4302.05128219;4201.66666660;4172.30769217
4175.89743576;4175.51282038;5223.58974568;4201.53846147;3485.76922917;2235.64102141;229.99999153;-0.00000896;3118.71794636;4332.94871816;3419.87179314;4300.51282066;3385.38461358;4302.43589758;4202.05128199;4172.30769217
4175.25641012;4202.56410250;5254.61538677;4173.71794858;3748.97435794;2234.10255987;-0.00000896;-0.00000896;3125.76922841;4335.25641047;3382.17948538;4274.35897443;3217.05127990;4301.66666681;4201.79487173;4172.17948704
4201.02564096;4202.30769224;5187.05128407;4172.30769217;3746.41025537;2203.71794441;0.51281155;-0.00000896;3156.41025412;4304.87179501;3414.48717775;4273.07692315;3315.38461344;4301.66666681;4202.05128199;4204.99999993
4174.99999986;4201.15384609;5154.87179682;4171.92307679;3809.61538372;2202.05127775;229.99999153;-0.00000896;3184.48717727;4304.87179501;3413.71794698;4274.35897443;3415.51281878;4302.17948732;4201.92307686;4172.17948704
4173.71794858;4202.30769224;5324.87179717;4173.97435884;3814.74358884;2236.02563679;0.51281155;-0.00000896;3156.02563874;4303.84615399;3452.43589577;4301.53846168;3387.43589563;4303.84615399;4203.84615378;4172.17948704
4173.46153833;4203.97435891;5156.92307887;4173.71794858;3617.69230638;2237.30768807;-0.00000896;-0.00000896;3185.76922855;4337.94871816;3353.58974172;4300.00000014;3320.64102370;4301.15384630;4201.53846147;4172.17948704
4173.84615371;4203.84615378;5126.41025829;4173.33333320;3547.17948572;2239.35897012;-0.00000896;-0.00000896;3191.41025419;4337.82051303;3486.28204969;4300.25641040;3254.48717741;4301.79487194;4204.48717942;4172.17948704
4172.30769217;4204.87179481;5449.35897693;4173.97435884;3749.48717845;2266.28204712;-0.00000896;-0.00000896;3191.53845932;4336.92307714;3382.30769050;4274.48717956;3381.02563922;4302.05128219;4202.30769224;4172.17948704
4172.17948704;4204.61538455;5091.79487361;4174.87179474;3746.15384512;2239.10255987;-0.00000896;-0.00000896;3219.74358759;4339.10256431;3419.74358801;4273.07692315;3388.07692127;4301.79487194;4202.17948711;4172.17948704
4172.69230756;4204.35897429;5193.07692510;4173.20512807;3913.33333264;2265.51281635;-0.00000896;-0.00000896;3221.79486964;4338.84615406;3415.12820339;4274.10256418;3256.79486971;4301.15384630;4202.17948711;4172.17948704
4172.43589730;4203.97435891;5155.51282246;4172.56410243;3483.84615225;2239.23076500;-0.00000896;-0.00000896;3250.12820305;4336.41025662;3318.97435703;4300.89743604;3382.17948538;4300.64102578;4202.43589737;4172.17948704
4172.05128192;4202.69230763;5352.30769467;4172.94871781;3939.48717887;2265.76922660;-0.00000896;-0.00000896;3249.48717741;4340.12820534;3384.99999820;4274.61538469;3189.74358752;4302.82051296;4202.05128199;4172.17948704
4172.56410243;4202.43589737;5127.17948906;4173.20512807;3678.46153728;2236.15384192;-0.00000896;-0.00000896;3251.66666459;4369.61538490;3483.84615225;4301.66666681;3254.35897228;4302.82051296;4202.56410250;4172.17948704
4173.07692294;4201.28205122;5387.56410500;4175.51282038;3742.17948614;2206.28204698;-0.00000896;-0.00000896;3251.79486971;4398.84615420;3451.41025475;4274.48717956;3315.12820319;4299.74358989;4202.69230763;4172.17948704
4174.10256397;4201.66666660;5090.51282232;4175.12820499;3550.76922931;2202.43589313;-0.00000896;-0.00000896;3250.89743382;4399.23076958;3382.30769050;4299.48717963;3316.92307498;4301.66666681;4202.05128199;4172.17948704
4173.97435884;4174.74358961;5218.58974568;4202.17948711;3650.76922952;2200.38461108;-0.00000896;-0.00000896;3250.64102356;4369.48717977;3417.05128032;4300.76923091;3122.82051046;4301.66666681;4204.23076917;4172.30769217
4175.25641012;4173.07692294;5092.17948899;4202.56410250;3843.33333250;2203.97435467;-0.00000896;-0.00000896;3252.56410048;4368.97435926;3351.15384428;4300.51282066;3385.12820333;4300.12820527;4202.43589737;4172.30769217
4176.15384602;4172.17948704;5452.05128463;4203.07692301;3611.53846022;2202.56409826;-0.00000896;-0.00000896;3252.17948510;4368.33333362;3414.23076750;4301.66666681;3283.33333132;4301.41025655;4204.23076917;4172.30769217
4175.76923063;4172.94871781;5122.30769419;4203.33333327;3683.33333216;2201.15384185;-0.00000896;-0.00000896;3253.58974151;4371.02564131;3386.41025461;4302.82051296;3319.87179293;4302.43589758;4202.30769224;4172.30769217
4175.12820499;4170.64102551;5193.20513022;4201.92307686;3513.84615232;2172.69230332;-0.00000896;-0.00000896;3287.05128004;4365.51282079;3421.41025468;4274.48717956;3352.17948531;4299.74358989;4176.15384602;4172.30769217
4171.53846140;4170.64102551;5286.02564325;4202.56410250;3814.74358884;2169.10255973;-0.00000896;-0.00000896;3289.10256209;4371.79487208;3353.84615197;4301.15384630;3350.89743403;4302.43589758;4202.43589737;4172.30769217
4169.10256397;4168.84615371;5185.89743792;4203.97435891;3644.23076798;2173.33332896;-0.00000896;-0.00000896;3285.76922876;4370.12820541;3355.76922890;4299.48717963;3350.64102377;4301.15384630;4201.92307686;4172.30769217
4168.84615371;4169.87179474;5156.15384810;4205.38461532;3615.89743458;2172.05127768;-0.00000896;-0.00000896;3256.92307484;4366.53846182;3385.89743409;4274.35897443;3420.64102391;4300.51282066;4174.99999986;4172.30769217
4143.46153826;4168.97435884;5319.48718178;4205.38461532;3872.94871719;2168.84614947;-0.00000896;-0.00000896;3256.02563894;4368.46153874;3447.94871628;4303.84615399;3386.15384435;4300.12820527;4201.92307686;4139.48717928
4142.69230749;4143.33333313;5186.02564304;4206.53846147;3451.15384449;2168.84614947;-0.00000896;-0.00000896;3282.43589542;4371.28205156;3354.99999813;4300.12820527;3152.69230540;4301.41025655;4201.92307686;4139.48717928
4142.69230749;4141.53846133;5126.79487367;4204.10256404;3644.10256286;2169.99999563;-0.00000896;-0.00000896;3256.28204920;4369.23076951;3383.20512640;4273.71794879;3385.64102384;4300.51282066;4201.66666660;4139.48717928
4141.92307672;4140.12820492;5451.15384873;4204.23076917;3847.82051199;2173.58973922;-0.00000896;-0.00000896;3255.89743382;4366.53846182;3382.69230589;4301.28205142;3322.43589549;4300.64102578;4201.92307686;4139.48717928
4142.94871774;4140.76923056;5090.64102745;4203.71794865;3611.66666535;2203.07691877;-0.00000896;-0.00000896;3253.71794664;4305.64102578;3449.10256244;4302.05128219;3418.71794698;4273.84615392;4201.92307686;4139.48717928
4169.35897422;4143.20512800;5191.53846356;4203.71794865;3842.69230686;2203.58973929;-0.00000896;-0.00000896;3254.74358766;4306.02564117;3420.25640852;4300.38461553;3286.79486978;4300.25641040;4202.69230763;4172.30769217
4171.28205115;4169.61538448;5121.92307880;4204.10256404;3678.20512703;2200.89743159;229.99999153;-0.00000896;3282.94871594;4332.94871816;3352.94871608;4299.74358989;3388.20512640;4299.87179501;4201.92307686;4172.30769217
4172.82051269;4170.51282038;5325.00000230;4202.43589737;3515.12820360;2172.30768793;229.99999153;-0.00000896;3287.56410055;4302.69230784;3319.48717755;4299.48717963;3151.41025412;4273.71794879;4202.05128199;4172.30769217
4173.97435884;4170.64102551;5126.79487367;4202.43589737;3743.46153742;2172.82050845;229.99999153;-0.00000896;3316.02563908;4304.10256425;3453.84615218;4302.82051296;3352.94871608;4274.74358982;4202.17948711;4172.30769217
4174.87179474;4170.89743576;5383.71795115;4205.25641019;3611.28204997;2202.82050852;229.99999153;-0.00000896;3316.02563908;4307.05128219;3446.41025475;4301.41025655;3383.20512640;4299.48717963;4201.92307686;4172.30769217
4201.41025634;4171.53846140;5120.25641214;4203.46153840;3649.48717824;2204.99999570;-0.00000896;-0.00000896;3318.33333139;4305.51282066;3453.07692141;4304.23076937;3289.35897235;4299.48717963;4202.30769224;4205.12820506
4175.64102551;4172.94871781;5192.82051484;4202.56410250;3809.74358884;2200.12820082;-0.00000896;-0.00000896;3321.15384421;4302.30769245;3381.28204948;4300.89743604;3282.69230568;4299.48717963;4201.66666660;4172.30769217
4176.28205115;4172.94871781;5093.84615566;4204.10256404;3846.92307609;2173.97435460;229.99999153;-0.00000896;3349.48717761;4305.25641040;3349.99999813;4303.07692322;3388.20512640;4273.71794879;4202.69230763;4172.30769217
4201.41025634;4173.97435884;5417.17948968;4203.58974352;3808.07692218;2200.38461108;-0.00000896;-0.00000896;3351.79486992;4332.30769252;3481.92307533;4301.15384630;3288.97435696;4273.33333341;4201.53846147;4205.12820506
4201.53846147;4174.99999986;5094.10256591;4206.66666660;3878.84615309;2202.17948288;229.99999153;-0.00000896;3350.25640838;4332.69230790;3419.48717775;4300.25641040;3381.28204948;4273.84615392;4202.05128199;4205.12820506
4204.87179481;4201.28205122;5193.71795074;4205.89743583;3777.43589647;2203.46153416;-0.00000896;-0.00000896;3321.53845960;4305.76923091;3546.41025495;4302.69230784;3321.41025447;4273.46153853;4201.53846147;4205.12820506
4204.35897429;4202.69230763;5289.87179710;4206.92307686;3446.53845987;2174.23076486;229.99999153;-0.00000896;3347.94871608;4304.74358989;3318.20512626;4301.53846168;3319.23076729;4299.74358989;4201.02564096;4205.12820506
4205.51282045;4202.94871788;5158.97436092;4207.69230763;3780.76922980;2172.05127768;-0.00000896;-0.00000896;3348.20512633;4334.23076944;3383.20512640;4299.61538476;3190.25640804;4274.48717956;4201.79487173;4205.12820506
4207.05128199;4201.92307686;5157.17948913;4206.53846147;3814.61538372;2168.33332896;229.99999153;-0.00000896;3348.71794685;4333.58974380;3419.99999827;4301.66666681;3353.84615197;4274.10256418;4201.41025634;4205.12820506
4205.76923070;4203.84615378;5290.00000223;4208.84615378;3911.79487110;2170.76922640;-0.00000896;-0.00000896;3322.69230575;4304.74358989;3446.41025475;4303.33333348;3386.28204948;4274.35897443;4201.79487173;4205.12820506
4206.79487173;4202.69230763;5188.97436099;4233.97435898;3614.35897304;2169.48717511;229.99999153;-0.00000896;3348.07692120;4332.69230790;3381.15384435;4300.12820527;3252.56410048;4274.35897443;4201.92307686;4205.12820506
4207.69230763;4203.20512814;5126.53846342;4208.84615378;3583.71794733;2171.53845716;-0.00000896;-0.00000896;3348.33333146;4307.43589758;3383.33333153;4301.66666681;3120.89743354;4300.00000014;4174.61538448;4205.12820506
4208.07692301;4205.25641019;5452.43590001;4235.00000000;3709.48717838;2172.30768793;229.99999153;-0.00000896;3321.79486985;4306.41025655;3413.46153673;4301.28205142;3315.64102370;4274.74358982;4201.92307686;4205.12820506
4234.10256411;4205.25641019;5088.58974540;4236.02564103;3679.74358857;2140.89743145;-0.00000896;-0.00000896;3318.07692114;4333.97435919;3383.97435717;4301.92307707;3351.15384428;4273.84615392;4201.53846147;4237.94871795
4235.64102564;4204.74358968;5192.17948920;4235.89743590;3876.28205052;2170.89743152;229.99999153;-0.00000896;3319.61538267;4333.58974380;3517.69230617;4302.30769245;3224.48717734;4299.74358989;4202.05128199;4237.94871795
4235.89743590;4206.15384609;5121.92307880;4236.92307693;3782.30769134;2171.41025204;-0.00000896;-0.00000896;3319.99999806;4336.53846175;3355.12820326;4301.79487194;3385.64102384;4274.10256418;4204.74358968;4237.94871795
4236.53846154;4205.38461532;5386.28205372;4235.64102564;3643.58974234;2171.53845716;229.99999153;-0.00000896;3320.64102370;4367.05128233;3353.46153659;4299.74358989;3318.46153652;4274.10256418;4201.66666660;4237.94871795
4235.12820513;4206.66666660;5126.53846342;4236.41025641;3613.33333202;2167.82050845;-0.00000896;-0.00000896;3348.20512633;4333.97435919;3387.56410076;4299.74358989;3189.48717727;4273.58974366;4201.79487173;4237.94871795
4235.38461539;4204.35897429;5355.25641262;4235.76923077;3812.05128115;2167.56409819;229.99999153;-0.00000896;3319.74358780;4337.17948739;3482.69230610;4302.05128219;3320.64102370;4274.23076930;4201.28205122;4237.94871795
4208.84615378;4204.74358968;5094.35897617;4235.12820513;3452.05128039;2171.92307255;-0.00000896;-0.00000896;3316.41025447;4335.38461560;3348.07692120;4300.25641040;3289.61538260;4273.20512828;4201.79487173;4205.12820506
4209.10256404;4205.38461532;5219.10256619;4236.79487180;3846.41025558;2168.33332896;229.99999153;-0.00000896;3289.74358773;4339.10256431;3419.87179314;4301.79487194;3219.35897221;4274.35897443;4201.92307686;4205.12820506
4208.84615378;4204.61538455;5094.35897617;4236.15384616;3775.38461442;2173.71794434;-0.00000896;-0.00000896;3289.87179286;4337.05128226;3350.76922890;4303.20512835;3382.43589563;4273.33333341;4201.53846147;4205.12820506
4234.61538462;4205.12820506;5450.12820770;4235.00000000;3681.66666549;2168.84614947;229.99999153;-0.00000896;3314.87179293;4339.10256431;3446.66666500;4300.76923091;3350.76922890;4274.10256418;4201.28205122;4237.94871795
4208.71794865;4205.12820506;5122.30769419;4236.28205129;3746.79487076;2169.99999563;-0.00000896;-0.00000896;3289.61538260;4366.28205156;3384.35897256;4302.56410271;3385.25640845;4273.84615392;4202.30769224;4205.12820506
4208.07692301;4204.23076917;5186.79487381;4236.15384616;3712.05128094;2173.07691870;229.99999153;-0.00000896;3289.10256209;4370.25641054;3449.74358808;4301.79487194;3350.76922890;4299.87179501;4202.05128199;4205.12820506
4207.30769224;4204.74358968;5320.76923307;4234.35897436;3844.10256327;2201.92307262;-0.00000896;-0.00000896;3285.89743389;4366.53846182;3351.28204941;4302.43589758;3353.20512633;4273.20512828;4201.41025634;4205.12820506
4207.69230763;4205.12820506;5158.46154041;4233.97435898;3749.48717845;2200.25640595;229.99999153;-0.00000896;3284.35897235;4365.89743618;3354.35897249;4301.92307707;3290.12820312;4272.56410264;4201.28205122;4205.12820506
4208.33333327;4204.99999993;5192.30769433;4207.43589737;3676.41025523;2198.97435467;-0.00000896;-0.00000896;3284.10256209;4340.38461560;3414.87179314;4301.41025655;3381.15384435;4272.94871802;4201.66666660;4205.12820506
4233.97435898;4205.51282045;5157.43589939;4206.28205122;3610.25640894;2167.82050845;229.99999153;-0.00000896;3285.12820312;4338.84615406;3481.41025482;4301.41025655;3384.87179307;4273.97435905;4201.53846147;4237.94871795
4208.46153840;4204.23076917;5185.76923279;4206.15384609;3845.76922994;2167.82050845;-0.00000896;-0.00000896;3286.41025440;4367.56410285;3353.97435710;4302.94871809;3251.66666459;4274.61538469;4201.79487173;4205.12820506
4233.97435898;4202.82051275;5125.64102752;4203.84615378;3515.64102412;2168.58973922;-0.00000896;-0.00000896;3287.17948517;4371.41025669;3419.87179314;4300.25641040;3120.12820277;4273.46153853;4202.43589737;4237.94871795
4207.05128199;4204.35897429;5453.97436155;4206.66666660;3774.87179390;2170.51281614;-0.00000896;-0.00000896;3288.71794671;4366.02564131;3388.58974179;4274.74358982;3351.79486992;4273.33333341;4201.41025634;4205.12820506
4207.69230763;4203.97435891;5092.17948899;4206.15384609;3779.35897339;2172.69230332;229.99999153;-0.00000896;3289.35897235;4339.74358996;3416.53845981;4301.02564117;3447.43589577;4299.48717963;4201.92307686;4205.12820506
4208.33333327;4204.48717942;5188.07692510;4207.69230763;3742.82051178;2169.23076486;229.99999153;-0.00000896;3317.43589549;4366.15384644;3447.30769064;4300.76923091;3251.15384407;4273.33333341;4201.53846147;4205.12820506
4207.43589737;4203.97435891;5027.30769398;4235.25641026;3513.07692155;2168.71794434;229.99999153;-0.00000896;3319.99999806;4340.12820534;3353.20512633;4301.66666681;3387.56410076;4302.05128219;4201.79487173;4205.12820506
4206.79487173;4203.71794865;5220.38461747;4235.64102564;3547.30769085;2167.56409819;229.99999153;-0.00000896;3321.28204934;4339.87179508;3385.64102384;4300.76923091;3119.61538226;4273.84615392;4201.92307686;4205.12820506
4206.15384609;4176.15384602;5156.41025836;4209.10256404;3676.02563985;2141.02563658;-0.00000896;-0.00000896;3321.53845960;4366.66666695;3381.02563922;4303.46153860;3418.33333160;4272.69230777;4201.92307686;4205.12820506
4204.10256404;4175.89743576;5353.84615621;4235.00000000;3845.12820430;2166.53845716;-0.00000896;-0.00000896;3349.35897249;4339.61538483;3418.84615211;4301.79487194;3353.97435710;4300.51282066;4201.66666660;4205.12820506
4201.53846147;4173.71794858;5125.25641214;4233.97435898;3579.61538323;2167.82050845;-0.00000896;-0.00000896;3348.84615197;4367.69230797;3450.76922911;4301.15384630;3413.71794698;4273.58974366;4201.92307686;4205.12820506
4174.87179474;4172.69230756;5191.66666869;4236.53846154;3709.87179376;2169.74358537;-0.00000896;-0.00000896;3322.17948524;4336.15384637;3352.30769044;4301.53846168;3089.10256167;4273.97435905;4202.56410250;4172.30769217
4173.71794858;4172.05128192;5121.66666855;4237.05128206;3810.25640936;2169.74358537;-0.00000896;-0.00000896;3314.99999806;4337.17948739;3352.30769044;4302.82051296;3384.48717768;4273.97435905;4201.66666660;4172.30769217
4174.74358961;4171.92307679;5353.46154083;4235.25641026;3712.82051171;2170.25640588;-0.00000896;-0.00000896;3289.61538260;4337.56410278;3419.10256237;4303.07692322;3320.76922883;4274.10256418;4201.66666660;4172.30769217
4171.92307679;4172.30769217;5121.28205316;4237.17948718;3681.92307575;2166.92307255;-0.00000896;-0.00000896;3317.43589549;4338.84615406;3381.92307512;4301.28205142;3256.02563894;4272.17948725;4201.53846147;4172.30769217
4169.87179474;4172.43589730;5187.05128407;4236.92307693;3714.35897325;2139.87179043;-0.00000896;-0.00000896;3320.38461344;4365.38461567;3452.30769064;4303.58974373;3381.92307512;4273.33333341;4201.02564096;4172.30769217
4142.17948697;4171.15384602;5324.87179717;4237.69230770;3513.46153694;2134.48717504;-0.00000896;-0.00000896;3321.79486985;4368.58974387;3317.56410062;4299.48717963;3322.17948524;4271.53846161;4201.53846147;4139.48717928
4138.33333313;4143.33333313;5157.05128400;4237.05128206;3810.76922987;2107.05127754;-0.00000896;-0.00000896;3316.28204934;4403.84615420;3416.28204955;4301.28205142;3216.79486964;4273.07692315;4201.53846147;4139.48717928
4108.71794844;4137.94871774;5191.02564304;4234.35897436;3843.84615302;2074.99999542;-0.00000896;-0.00000896;3322.17948524;4406.02564138;3416.41025468;4302.43589758;3348.84615197;4271.53846161;4201.02564096;4106.66666639
4076.28205094;4105.25640998;5059.10256584;4207.43589737;3840.38461455;2037.69230304;-0.00000896;-0.00000896;3386.79486999;4466.66666716;3448.20512654;4302.43589758;3415.76922904;4273.33333341;4201.53846147;4073.84615350
4009.35897388;4042.43589702;5187.30769433;4203.46153840;3551.41025495;1910.64102071;-0.00000896;-0.00000896;3515.76922924;4496.53846210;3318.46153652;4302.30769245;3190.64102342;4301.15384630;4201.53846147;4008.20512772
3878.20512744;3944.23076861;5123.84615573;4171.53846140;3416.02563929;1775.38461018;-0.00000896;-0.00000896;3647.43589619;4567.69230839;3486.53845994;4302.43589758;3285.64102363;4272.69230777;4201.28205122;3876.79487103
3713.33333223;3814.74358884;5453.20513078;4140.25641005;3747.94871691;1741.79486652;-0.00000896;-0.00000896;3651.15384491;4602.30769308;3383.20512640;4303.58974373;3385.12820333;4272.05128212;4201.15384609;3712.69230658
3581.15384477;3742.17948614;5094.23077104;4140.89743569;3710.89743479;1877.82050782;-0.00000896;-0.00000896;3548.58974213;4630.38461622;3450.38461372;4301.53846168;3420.64102391;4273.46153853;4176.15384602;3581.41025502
3482.82051123;3677.43589626;5220.38461747;4168.97435884;3808.20512731;1973.33332854;-0.00000896;-0.00000896;3486.28204969;4599.10256487;3417.82051109;4303.84615399;3319.74358780;4271.92307700;4175.64102551;3482.94871635
3414.99999827;3613.46153715;5225.00000209;4173.71794858;3579.87179349;2007.05127733;-0.00000896;-0.00000896;3450.38461372;4597.56410333;3321.41025447;4302.69230784;3383.58974179;4272.69230777;4175.25641012;3417.30769057
3352.43589556;3550.89743444;5252.56410472;4201.92307686;3611.53846022;2006.66666195;-0.00000896;-0.00000896;3418.33333160;4568.07692378;3354.10256223;4302.56410271;3123.58974123;4269.61538469;4173.84615371;3351.79486992
3347.69230582;3517.94871642;5154.35897631;4205.64102558;3682.05128087;2005.89743118;-0.00000896;-0.00000896;3386.02563922;4566.02564172;3384.48717768;4305.00000014;3414.87179314;4270.64102571;4173.71794858;3351.79486992
3320.25640831;3481.79487020;5323.33333563;4240.76923077;3741.92307588;2068.20512362;-0.00000896;-0.00000896;3354.61538274;4531.79487242;3418.33333160;4303.71794886;3355.64102377;4270.00000007;4172.94871781;3318.97435703
3321.15384421;3446.66666500;5154.87179682;4273.84615392;3617.43589612;2074.10255952;-0.00000896;-0.00000896;3288.33333132;4529.23076986;3413.71794698;4306.41025655;3386.53845974;4269.48717956;4172.05128192;3318.97435703
3353.07692120;3413.84615211;5188.20513022;4332.94871816;3454.23076757;2101.02563651;-0.00000896;-0.00000896;3256.66666459;4529.23076986;3321.92307498;4305.00000014;3087.17948475;4272.30769238;4171.15384602;3351.92307505
3384.48717768;3354.23076736;5223.20513029;4366.92307720;3846.66666584;2106.79486728;-0.00000896;-0.00000896;3255.51281843;4500.89743646;3347.94871608;4301.15384630;3387.43589563;4269.61538469;4170.51282038;3384.74358794
3414.74358801;3319.23076729;5418.71795122;4398.84615420;3708.84615274;2136.79486735;229.99999153;-0.00000896;3256.66666459;4496.41025697;3421.15384442;4305.76923091;3386.79486999;4271.02564110;4168.84615371;3417.56410083
3418.84615211;3283.58974158;5123.20513009;4405.76923112;3746.92307588;2202.05127775;-0.00000896;-0.00000896;3283.07692107;4405.38461574;3416.66666493;4306.28205142;3284.23076722;4269.74358982;4168.46153833;3417.56410083
3449.10256244;3255.12820305;5156.92307887;4437.05128247;3418.71794698;2331.66666264;1.02563207;-0.00000896;3254.35897228;4366.02564131;3447.82051116;4333.07692329;3221.28204913;4270.89743597;4142.17948697;3450.38461372
3482.17948559;3285.12820312;5355.12820749;4469.10256459;3645.12820388;2436.41025259;-0.00000896;-0.00000896;3189.99999778;4267.94871802;3318.97435703;4305.64102578;3257.05127997;4271.66666674;4142.43589723;3483.33333174
3516.02563950;3321.28204934;5155.00000195;4498.84615441;3611.53846022;2461.79486805;229.99999153;-0.00000896;3155.38461310;4173.71794858;3380.64102384;4304.87179501;3380.89743409;4272.43589751;4139.99999980;3516.15384463
3551.28204983;3381.66666486;5256.15384831;4500.00000056;3780.51281954;2431.66666285;229.99999153;-0.00000896;3090.51281808;4136.41025621;3388.33333153;4305.12820527;3387.17948538;4271.53846161;4138.71794851;3548.97435752
3582.17948579;3386.41025461;5090.25641207;4497.94871851;3617.56410125;2369.35897040;229.99999153;-0.00000896;3085.12820270;4069.99999966;3418.46153673;4305.38461553;3385.76922897;4272.82051289;4138.07692287;3581.79487041
3617.17948586;3413.84615211;5187.69230971;4498.07692364;3518.58974206;2367.82050886;229.99999153;-0.00000896;3150.76922848;4009.99999952;3318.46153652;4304.61538476;3151.02563874;4273.33333341;4135.38461518;3614.61538330
3647.94871670;3417.69230596;5122.82051470;4504.23076979;3382.17948538;2465.64102189;229.99999153;-0.00000896;3122.69230533;3945.89743528;3351.53845967;4303.84615399;3348.33333146;4273.46153853;4136.28205108;3647.43589619
3678.71794754;3450.89743423;5451.53846411;4565.51282121;3811.79487090;2599.87179140;229.99999153;-0.00000896;2958.46153576;3907.82051213;3351.79486992;4303.20512835;3380.51281871;4299.48717963;4135.38461518;3680.25640908
3743.84615281;3514.61538309;5120.12820701;4595.12820590;3582.43589605;2663.97435564;229.99999153;-0.00000896;2761.92307380;3812.94871705;3447.94871628;4306.53846168;3420.76922904;4300.51282066;4106.53846126;3746.02563999
3812.43589654;3579.61538323;5221.79487388;4563.20512890;3774.99999903;2595.64102217;229.99999153;-0.00000896;2696.41025315;3748.71794768;3415.38461365;4307.56410271;3284.48717748;4301.92307707;4107.94871767;3811.53846064
3907.56410187;3613.46153715;5284.87179710;4531.02564165;3613.20512689;2593.84615038;229.99999153;-0.00000896;2630.64102224;3681.66666549;3220.25640811;4302.05128219;3384.35897256;4300.00000014;4109.61538434;3909.99999931
3974.48717894;3649.23076798;5286.41025864;4498.07692364;3513.84615232;2594.35897089;229.99999153;-0.00000896;2632.82050942;3647.69230645;3286.15384414;4303.97435912;3152.82051053;4302.56410271;4107.43589716;3975.64102509
4040.38461497;3682.69230651;5125.51282239;4463.58974408;3744.35897332;2631.02563762;229.99999153;-0.00000896;2626.66666327;3550.51281906;3288.46153645;4301.53846168;3413.33333160;4302.17948732;4106.92307665;4041.28205087
4102.56410229;3745.64102460;5320.25641255;4403.97435933;3676.79487062;2659.74358641;229.99999153;-0.00000896;2626.15384275;3545.12820367;3545.64102419;4301.15384630;3354.23076736;4302.82051296;4105.25640998;4106.79487152
4137.82051262;3807.56410166;5187.56410458;4367.17948746;3709.61538351;2631.79486839;229.99999153;-0.00000896;2659.10256077;3514.99999848;3321.02563908;4301.79487194;3418.07692134;4301.92307707;4104.74358947;4139.61538441
4171.41025628;3844.23076840;5152.82051477;4333.71794893;3416.53845981;2658.58974026;229.99999153;-0.00000896;2694.74358648;3452.69230603;3351.15384428;4300.12820527;3086.02563860;4304.61538476;4104.35897408;4172.43589730
4176.28205115;3875.89743514;5417.82051533;4305.00000014;3709.35897325;2628.20512480;229.99999153;-0.00000896;2725.12820194;3482.56410097;3319.48717755;4300.89743604;3414.99999827;4301.66666681;4103.07692280;4172.30769217
4208.71794865;3909.61538392;5290.25641248;4300.76923091;3583.46153708;2600.51281704;229.99999153;-0.00000896;2726.41025322;3483.07692148;3413.58974186;4300.51282066;3382.94871615;4304.87179501;4102.69230742;4205.12820506
4267.17948725;3913.07692239;5155.64102759;4274.23076930;3650.51281927;2629.48717609;229.99999153;-0.00000896;2665.25640692;3453.71794705;3446.66666500;4301.53846168;3321.66666472;4303.71794886;4102.82051255;4270.76923084
4300.89743604;3942.05128143;5156.79487374;4268.84615392;3380.89743409;2600.12820166;229.99999153;-0.00000896;2730.12820194;3447.56410090;3352.82051095;4300.12820527;3186.53845932;4302.17948732;4077.05128171;4303.58974373
4332.43589765;3946.53846092;5354.35897673;4239.10256411;3808.33333243;2628.46153506;229.99999153;-0.00000896;2796.15384310;3388.07692127;3320.38461344;4272.05128212;3381.02563922;4303.33333348;4077.05128171;4336.41025662
4338.71794893;3973.46153791;5127.43589932;4236.92307693;3420.89743416;2658.97435564;229.99999153;-0.00000896;2861.53845862;3355.38461351;3385.25640845;4301.15384630;3252.94871587;4304.61538476;4104.35897408;4336.41025662
4337.94871816;3979.10256355;5383.20513064;4236.15384616;3742.94871691;2660.38461205;229.99999153;-0.00000896;2954.87179217;3380.76922897;3352.05128018;4274.74358982;3347.82051095;4303.97435912;4076.79487145;4336.41025662
4335.00000021;4006.79487131;5093.84615566;4236.15384616;3387.17948538;2631.41025301;229.99999153;-0.00000896;2986.92307429;3350.12820326;3351.92307505;4274.61538469;3382.56410076;4303.97435912;4076.15384581;4336.41025662
4332.56410278;4009.35897388;5218.58974568;4234.10256411;3776.15384518;2661.92307359;229.99999153;-0.00000896;2961.53845883;3318.97435703;3351.53845967;4301.02564117;3315.89743396;4302.17948732;4075.64102530;4336.41025662
4307.56410271;4038.33333292;5094.10256591;4207.43589737;3578.46153708;2665.12820180;229.99999153;-0.00000896;2989.48717685;3289.99999799;3380.89743409;4274.48717956;3185.64102342;4303.58974373;4074.74358940;4303.58974373
4307.43589758;4042.05128164;5451.41025899;4207.82051275;3546.28204983;2662.30768898;229.99999153;-0.00000896;2987.69230506;3284.61538260;3218.71794657;4274.35897443;3322.69230575;4302.94871809;4074.48717914;4303.58974373
4306.79487194;4044.48717907;5122.30769419;4207.05128199;3680.51281934;2664.61538128;229.99999153;-0.00000896;2959.10256140;3317.17948524;3349.61538274;4272.43589751;3381.79486999;4302.43589758;4074.23076889;4303.58974373
4307.30769245;4071.02564068;5193.58974561;4206.15384609;3486.15384456;2662.05127872;229.99999153;-0.00000896;2959.87179217;3288.33333132;3385.64102384;4300.64102578;3150.76922848;4301.02564117;4073.71794837;4303.58974373
4306.15384630;4073.58974325;5286.41025864;4204.87179481;3741.92307588;2660.12820180;229.99999153;-0.00000896;2993.33333070;3256.79486971;3289.99999799;4300.51282066;3387.05128025;4302.43589758;4073.46153812;4303.58974373
4305.76923091;4076.92307658;5225.51282260;4204.74358968;3515.25640873;2663.20512487;229.99999153;-0.00000896;3021.79486923;3252.56410048;3354.48717761;4274.74358982;3351.92307505;4304.74358989;4073.84615350;4303.58974373
4306.41025655;4106.28205101;5153.07692503;4207.05128199;3581.53846015;2633.58974019;229.99999153;-0.00000896;3025.12820256;3254.10256202;3388.58974179;4299.48717963;3289.74358773;4302.17948732;4073.46153812;4303.58974373
4305.89743604;4108.33333306;5291.28205351;4235.76923077;3450.38461372;2659.48717616;229.99999153;-0.00000896;3023.46153589;3256.15384407;3418.84615211;4299.48717963;3253.20512612;4303.33333348;4073.58974325;4303.58974373
4307.30769245;4135.76923056;5188.20513022;4237.05128206;3713.33333223;2662.69230436;229.99999153;-0.00000896;3020.12820256;3255.76922869;3319.61538267;4299.61538476;3413.97435724;4302.30769245;4072.69230735;4303.58974373
4306.92307707;4139.23076903;5126.15384803;4238.33333334;3452.05128039;2662.43589410;229.99999153;-0.00000896;3052.43589494;3249.61538253;3349.87179300;4299.74358989;3090.51281808;4300.89743604;4073.97435863;4303.58974373
4305.25641040;4141.28205108;5452.43590001;4238.20512821;3646.28205004;2663.84615051;-0.00000896;-0.00000896;3055.76922827;3220.89743375;3352.82051095;4271.15384623;3354.35897249;4301.15384630;4072.30769196;4303.58974373
4304.48717963;4168.71794858;5088.58974540;4236.66666667;3643.84615260;2661.79486846;-0.00000896;-0.00000896;3053.84615135;3222.05127990;3414.74358801;4299.87179501;3319.10256216;4301.66666681;4070.12820478;4303.58974373
4302.17948732;4171.28205115;5192.30769433;4236.66666667;3582.05128067;2692.30768905;229.99999153;-0.00000896;3052.94871545;3249.48717741;3418.33333160;4301.15384630;3316.02563908;4303.07692322;4072.56410222;4303.58974373
4301.79487194;4173.97435884;5121.28205316;4235.38461539;3545.12820367;2664.74358641;-0.00000896;-0.00000896;3026.53845897;3219.61538247;3383.97435717;4274.23076930;3151.92307463;4302.43589758;4071.92307658;4303.58974373
4302.43589758;4201.66666660;5385.38461782;4237.43589744;3418.33333160;2665.38461205;-0.00000896;-0.00000896;3027.17948461;3216.41025426;3086.92307449;4273.33333341;3219.23076708;4301.66666681;4070.25640991;4303.58974373
4304.74358989;4203.58974352;5126.53846342;4239.48717949;3712.30769120;2697.69230443;-0.00000896;-0.00000896;3053.33333084;3187.43589522;3381.28204948;4300.12820527;3352.30769044;4301.66666681;4072.05128171;4303.58974373
4303.71794886;4207.56410250;5355.12820749;4241.92307693;3581.66666528;2697.43589417;-0.00000896;-0.00000896;3055.38461289;3185.12820291;3451.92307526;4299.74358989;3318.07692114;4302.82051296;4070.64102530;4303.58974373
4301.28205142;4234.23076923;5095.25641207;4267.94871802;3650.76922952;2726.41025322;-0.00000896;-0.00000896;3024.61538205;3119.35897200;3284.23076722;4300.38461553;3384.99999820;4301.28205142;4071.79487145;4303.58974373
4272.43589751;4238.33333334;5193.20513022;4240.38461539;3549.87179342;2726.41025322;-0.00000896;-0.00000896;2988.33333070;3092.30768988;3380.51281871;4272.30769238;3283.33333132;4302.56410271;4071.66666632;4270.76923084
4267.69230777;4270.12820520;5094.87179668;4207.05128199;3513.33333181;2726.79486860;-0.00000896;-0.00000896;2958.20512550;3123.84615149;3354.23076736;4273.20512828;3256.53845946;4301.79487194;4071.79487145;4270.76923084
4240.89743590;4300.25641040;5450.00000257;4202.30769224;3649.61538337;2662.30768898;-0.00000896;-0.00000896;2955.38461268;3158.71794643;3221.02563888;4299.48717963;3319.87179293;4301.15384630;4072.05128171;4237.94871795
4237.82051282;4302.05128219;5122.17948906;4170.38461525;3583.33333195;2598.97435550;-0.00000896;-0.00000896;2958.97435627;3251.41025433;3321.79486985;4300.00000014;3381.79486999;4300.76923091;4071.92307658;4237.82051282
4236.92307693;4301.02564117;5186.79487381;4168.71794858;3711.41025530;2594.74358627;-0.00000896;-0.00000896;2960.89743319;3287.05128004;3447.30769064;4273.20512828;3282.82051081;4300.76923091;4044.99999959;4237.82051282
4239.10256411;4273.71794879;5321.28205358;4143.20512800;3677.17948600;2566.41025287;-0.00000896;-0.00000896;2989.48717685;3355.38461351;3190.64102342;4301.53846168;3380.76922897;4302.56410271;4072.17948684;4237.82051282
4267.43589751;4267.43589751;5157.94871990;4141.02564082;3417.17948545;2531.41025280;-0.00000896;-0.00000896;3023.71794615;3355.25640838;3322.30769037;4301.79487194;3218.46153631;4299.87179501;4075.12820478;4270.64102571
4268.71794879;4240.12820513;5158.71795067;4142.05128185;3710.38461428;2466.02563728;-0.00000896;-0.00000896;3089.23076680;3387.05128025;3384.23076743;4299.48717963;3388.58974179;4301.66666681;4072.69230735;4270.64102571
4269.87179495;4208.07692301;5285.12820736;4170.51282038;3613.20512689;2501.15384247;-0.00000896;-0.00000896;3125.25640790;3380.89743409;3418.33333160;4299.48717963;3353.46153659;4301.41025655;4072.17948684;4270.64102571
4269.35897443;4204.35897429;5219.10256619;4175.76923063;3579.74358836;2529.61538101;-0.00000896;-0.00000896;3155.25640797;3349.23076736;3380.89743409;4300.51282066;3414.87179314;4302.82051296;4072.05128171;4270.64102571
4269.23076930;4175.64102551;5153.33333528;4206.41025634;3386.41025461;2560.38461184;-0.00000896;-0.00000896;3190.25640804;3320.64102370;3348.58974172;4301.15384630;3089.35897193;4301.66666681;4072.30769196;4270.76923084
4267.30769238;4175.38461525;5419.74359225;4234.87179488;3646.79487055;2561.02563749;-0.00000896;-0.00000896;3223.58974144;3316.28204934;3353.33333146;4300.64102578;3416.53845981;4303.07692322;4072.17948684;4270.76923084
4239.87179488;4175.51282038;5120.38461726;4240.25641026;3776.66666570;2561.92307338;-0.00000896;-0.00000896;3251.41025433;3282.56410055;3480.25640866;4273.71794879;3354.35897249;4301.53846168;4071.41025607;4237.94871795
4238.71794872;4176.02564089;5186.02564304;4268.84615392;3646.15384491;2567.17948364;-0.00000896;-0.00000896;3188.58974137;3252.05127997;3382.56410076;4272.69230777;3382.30769050;4302.43589758;4072.17948684;4237.94871795
4236.53846154;4175.51282038;5089.74359155;4271.92307700;3388.58974179;2566.41025287;-0.00000896;-0.00000896;3184.87179265;3251.66666459;3383.33333153;4274.61538469;3118.33333097;4300.38461553;4071.66666632;4237.94871795
4207.17948711;4172.17948704;5350.00000237;4272.43589751;3486.92307533;2593.97435550;-0.00000896;-0.00000896;3151.15384386;3254.87179279;3252.17948510;4300.76923091;3282.05128004;4300.12820527;4073.07692273;4205.12820506
4204.99999993;4172.69230756;5126.66666855;4269.74358982;3712.05128094;2598.84615038;-0.00000896;-0.00000896;3120.89743354;3252.94871587;3414.74358801;4301.15384630;3354.10256223;4300.76923091;4072.43589709;4205.12820506
4175.64102551;4173.33333320;5352.05128442;4268.46153853;3683.07692190;2596.92307345;-0.00000896;-0.00000896;3121.79486944;3220.25640811;3413.97435724;4300.51282066;3314.99999806;4303.20512835;4072.56410222;4172.30769217
4174.35897422;4174.99999986;5125.64102752;4269.35897443;3578.84615246;2593.46153499;-0.00000896;-0.00000896;3118.33333097;3252.30769023;3316.02563908;4300.38461553;3420.76922904;4302.17948732;4071.79487145;4172.30769217
4171.02564089;4201.28205122;5193.07692510;4269.87179495;3449.87179321;2566.02563749;-0.00000896;-0.00000896;3088.84615142;3284.99999799;3283.71794671;4274.74358982;3058.46153596;4302.30769245;4072.17948684;4172.30769217
4170.51282038;4173.20512807;5120.12820701;4270.89743597;3583.58974220;2565.12820159;229.99999153;-0.00000896;3057.17948468;3283.07692107;3350.25640838;4301.79487194;3420.25640852;4302.56410271;4069.74358940;4172.30769217
4168.58974345;4171.53846140;5448.20513078;4269.74358982;3745.51281947;2596.41025294;229.99999153;-0.00000896;3052.56410007;3252.82051074;3416.92307519;4274.10256418;3354.23076736;4301.66666681;4071.66666632;4172.30769217
4143.33333313;4169.74358961;5122.69230957;4268.07692315;3680.89743472;2592.94871448;229.99999153;-0.00000896;3057.43589494;3252.56410048;3418.07692134;4274.10256418;3419.99999827;4301.66666681;4073.84615350;4139.48717928
4142.43589723;4170.12820499;5160.38461733;4267.43589751;3713.46153735;2593.71794525;229.99999153;-0.00000896;3057.56410007;3251.79486971;3383.97435717;4274.48717956;3155.25640797;4303.20512835;4071.92307658;4139.48717928
4140.64102544;4170.89743576;5349.74359211;4269.10256418;3452.05128039;2600.25640679;-0.00000896;-0.00000896;3027.43589487;3250.64102356;3157.69230540;4300.25641040;3387.94871615;4300.51282066;4071.92307658;4139.48717928
4138.84615364;4171.66666653;5156.53846349;4269.10256418;3713.71794761;2596.28204781;1.15383719;-0.00000896;3027.56410000;3250.51281843;3416.92307519;4300.38461553;3314.87179293;4300.89743604;4072.17948684;4139.48717928
4137.43589723;4171.66666653;5187.05128407;4270.38461546;3514.48717796;2567.43589390;229.99999153;-0.00000896;3023.58974102;3249.23076715;3380.51281871;4273.58974366;3286.79486978;4303.33333348;4071.79487145;4139.48717928
4136.41025621;4171.15384602;5191.79487381;4270.76923084;3781.28205031;2596.15384268;1.15383719;-0.00000896;2994.61538198;3254.61538253;3415.89743416;4301.02564117;3253.20512612;4300.89743604;4071.66666632;4139.48717928
4137.94871774;4172.69230756;5188.46154048;4268.33333341;3449.87179321;2627.94871455;229.99999153;-0.00000896;2989.10256147;3254.74358766;3125.51281815;4272.94871802;3220.51281836;4301.92307707;4071.79487145;4139.48717928
4139.35897415;4173.20512807;5152.82051477;4266.66666674;3616.53846022;2599.99999653;1.15383719;-0.00000896;2987.94871531;3252.43589536;3385.64102384;4299.61538476;3319.23076729;4303.20512835;4071.79487145;4139.48717928
4139.48717928;4173.84615371;5452.56410514;4267.30769238;3452.69230603;2599.23076576;229.99999153;-0.00000896;2993.07692044;3283.97435696;3222.43589529;4299.61538476;3382.69230589;4302.94871809;4069.74358940;4139.48717928
4139.74358954;4174.23076910;5088.07692489;4240.89743590;3775.12820416;2599.99999653;1.15383719;-0.00000896;3022.30768974;3253.07692100;3418.33333160;4272.17948725;3387.43589563;4303.97435912;4071.53846119;4139.48717928
4138.58974339;4174.10256397;5192.94871997;4266.66666674;3585.25640887;2628.84615045;229.99999153;-0.00000896;2994.74358711;3282.82051081;3354.23076736;4274.10256418;3348.58974172;4302.94871809;4071.92307658;4139.48717928
4137.30769210;4175.76923063;5092.94871976;4241.92307693;3679.48717831;2598.84615038;1.15383719;-0.00000896;2992.17948454;3285.38461337;3388.33333153;4274.10256418;3152.05127976;4303.07692322;4072.94871761;4139.48717928
4137.94871774;4201.92307686;5417.94872045;4240.12820513;3420.25640852;2597.56409909;229.99999153;-0.00000896;2988.58974095;3318.46153652;3155.51281822;4300.64102578;3381.02563922;4303.33333348;4072.43589709;4139.48717928
4139.87179467;4202.05128199;5125.76923265;4240.00000000;3679.61538344;2596.41025294;1.15383719;-0.00000896;2987.17948454;3320.51281857;3382.30769050;4271.15384623;3317.30769037;4303.71794886;4072.82051248;4139.48717928
4140.38461518;4174.35897422;5321.66666896;4240.76923077;3551.92307547;2565.76922723;229.99999153;-0.00000896;2989.74358711;3348.97435710;3414.35897263;4274.35897443;3285.25640825;4305.76923091;4072.56410222;4139.48717928
4138.84615364;4172.30769217;5127.82051470;4239.61538462;3714.74358864;2564.48717595;1.15383719;-0.00000896;3019.61538205;3349.48717761;3318.97435703;4273.20512828;3382.69230589;4303.07692322;4071.92307658;4139.48717928
4137.69230749;4172.17948704;5192.30769433;4240.12820513;3546.66666521;2567.56409902;229.99999153;-0.00000896;2989.10256147;3352.43589556;3318.20512626;4273.46153853;3314.99999806;4304.10256425;4072.30769196;4139.48717928
4139.61538441;4171.92307679;5121.53846342;4239.87179488;3479.61538302;2532.17948357;1.15383719;-0.00000896;2955.64102293;3382.56410076;3354.74358787;4274.61538469;3321.53845960;4304.23076937;4072.43589709;4139.48717928
4168.20512807;4171.53846140;5416.41025892;4266.92307700;3649.74358850;2496.28204760;229.99999153;-0.00000896;2954.23076652;3419.61538288;3386.15384435;4271.79487187;3415.89743416;4302.82051296;4072.30769196;4172.30769217
4168.71794858;4170.64102551;5092.05128386;4269.87179495;3616.92307561;2469.48717574;1.15383719;-0.00000896;2955.12820242;3446.79487013;3449.74358808;4273.97435905;3414.10256237;4302.43589758;4070.38461504;4172.30769217
4171.79487166;4141.53846133;5186.02564304;4271.41025648;3683.84615267;2464.48717574;229.99999153;-0.00000896;2954.61538191;3448.20512654;3380.76922897;4273.84615392;3253.71794664;4303.71794886;4073.46153812;4172.30769217
4172.94871781;4136.79487159;5355.12820749;4273.33333341;3614.87179356;2465.38461164;1.15383719;-0.00000896;2955.51281781;3479.10256251;3284.87179286;4273.84615392;3382.17948538;4305.00000014;4072.30769196;4172.30769217
4171.66666653;4108.07692280;5155.00000195;4273.46153853;3519.87179335;2499.48717581;229.99999153;-0.00000896;2927.82051004;3452.69230603;3415.25640852;4274.10256418;3286.15384414;4303.71794886;4071.53846119;4172.30769217
4171.41025628;4106.53846126;5190.25641228;4269.35897443;3648.84615260;2434.61538080;1.15383719;-0.00000896;2928.58974081;3450.25640859;3381.28204948;4272.56410264;3322.05128011;4305.89743604;4072.17948684;4172.30769217
4168.71794858;4105.89743562;5126.79487367;4268.84615392;3545.12820367;2396.92307304;229.99999153;-0.00000896;2988.84615121;3481.02563943;3419.10256237;4273.71794879;3253.33333125;4304.23076937;4073.58974325;4172.30769217
4142.17948697;4103.71794844;5191.02564304;4268.33333341;3610.76922945;2403.46153457;1.15383719;-0.00000896;3020.89743333;3517.05128053;3352.30769044;4299.87179501;3383.84615204;4305.25641040;4072.05128171;4139.48717928
4137.30769210;4077.43589709;5127.56410444;4269.48717956;3643.71794747;2430.25640644;229.99999153;-0.00000896;3057.94871545;3578.84615246;3322.56410062;4274.61538469;3289.61538260;4304.74358989;4071.41025607;4139.48717928
4107.17948691;4074.61538427;5452.56410514;4272.17948725;3742.56410153;2365.51281656;1.15383719;-0.00000896;3086.53845911;3643.58974234;3387.82051102;4301.28205142;3385.38461358;4306.28205142;4071.02564068;4106.66666639
4104.87179460;4039.23076882;5062.17948892;4301.66666681;3808.07692218;2331.28204726;229.99999153;-0.00000896;3124.87179251;3681.66666549;3416.53845981;4274.10256418;3415.76922904;4304.87179501;4071.15384581;4106.66666639
4104.61538434;3975.51281996;5192.43589945;4338.20512842;3517.17948565;2366.28204733;1.15383719;-0.00000896;3187.17948496;3679.61538344;3386.02563922;4274.74358982;3287.82051081;4332.56410278;4071.79487145;4106.79487152
4103.84615357;3938.71794810;5092.94871976;4401.53846189;3676.28205010;2436.79486798;229.99999153;-0.00000896;3221.28204913;3650.76922952;3350.89743403;4272.17948725;3353.33333146;4305.64102578;4070.89743555;4106.79487152
4077.43589709;3905.64102495;5422.17948968;4435.51282093;3512.69230617;2530.38461178;1.02563207;-0.00000896;3154.99999771;3612.69230638;3321.02563908;4272.43589751;3380.76922897;4305.76923091;4071.41025607;4073.97435863
4104.10256383;3847.43589661;5124.23077111;4469.10256459;3709.23076812;2658.84615051;-0.00000896;-0.00000896;3093.20512578;3513.33333181;3418.71794698;4272.56410264;3315.76922883;4306.15384630;4069.87179453;4106.92307665
4109.35897408;3843.33333250;5285.51282274;4500.51282107;3512.17948565;2758.97435585;-0.00000896;-0.00000896;3089.74358732;3387.17948538;3383.58974179;4270.51282059;3283.46153645;4305.00000014;4044.23076882;4106.92307665
4141.02564082;3845.89743507;5252.69230985;4531.02564165;3578.33333195;2826.41025343;229.99999153;-0.00000896;3151.66666438;3322.82051088;3220.38461323;4270.25641033;3189.87179265;4307.56410271;4044.74358933;4139.74358954
4168.20512807;3876.41025565;5257.05128421;4568.33333403;3847.30769148;2856.79486888;229.99999153;-0.00000896;3217.82051067;3317.69230575;3447.82051116;4269.23076930;3612.94871663;4333.71794893;4070.76923043;4172.56410243
4140.64102544;3879.48717873;3615.89743458;4630.64102648;4006.41025593;2955.25640755;229.99999153;-0.00000896;3186.02563881;3282.56410055;3879.48717873;4267.69230777;3942.30769169;4333.97435919;4044.48717907;4139.87179467
4137.43589723;3906.79487110;4463.71794921;4667.43589834;5842.05128546;3025.51281795;229.99999153;-0.00000896;3090.76922834;3251.41025433;5319.74359204;4268.71794879;6040.89743972;4334.61538483;4043.58974318;4139.87179467
4139.23076903;3911.41025572;4136.28205108;4698.58974457;5448.97436155;3154.10256181;-0.00000896;-0.00000896;2924.23076646;3190.25640804;4562.05128275;4268.46153853;5055.12820687;4335.89743611;4042.69230728;4139.87179467
4171.02564089;3940.76923015;5028.33333500;4694.48718046;5286.28205351;3186.28204906;-0.00000896;-0.00000896;2691.79486853;3188.71794650;4958.71795025;4238.46153847;5319.48718178;4335.12820534;4044.74358933;4172.69230756
4202.82051275;3912.30769162;3879.48717873;4662.43589834;5321.79487409;3191.53845932;-0.00000896;-0.00000896;2600.51281704;3092.05127962;4992.30769391;4266.66666674;5058.71795046;4338.07692329;4042.94871754;4205.51282045
4235.89743590;3938.97435835;4566.66666737;4630.51282135;5353.07692544;3384.10256230;-0.00000896;-0.00000896;2399.23076534;2926.15384338;5193.33333535;4239.48717949;4863.58974491;4335.76923098;4042.30769189;4238.33333334
4269.23076930;3973.07692252;4827.56410382;4595.38461615;5389.87179731;3453.84615218;-0.00000896;-0.00000896;2135.76922633;2822.82050984;5022.94871962;4239.23076923;5548.46154124;4337.82051303;4041.92307651;4271.15384623
4339.10256431;4011.66666618;5160.89743785;4534.48718012;5155.38461733;3419.99999827;-0.00000896;-0.00000896;2041.02563637;2729.35897117;4825.76923202;4239.48717949;5059.48718123;4337.30769252;4041.28205087;4336.66666688
4431.41025683;4072.69230735;4957.56410410;4497.17948774;5192.30769433;3417.43589570;-0.00000896;-0.00000896;2107.94871344;2660.89743257;4038.20512779;4238.84615385;4893.71795011;4337.17948739;4040.25640984;4435.12820555
4467.56410305;4106.92307665;5192.82051484;4465.64102613;5160.76923272;3513.46153694;-0.00000896;-0.00000896;2007.82050810;2597.82050935;4139.35897415;4237.56410257;5121.79487367;4338.71794893;4040.12820472;4467.94871844
4530.51282114;4175.76923063;4895.38461678;4402.56410292;5091.15384796;3583.46153708;-0.00000896;-0.00000896;1807.43589230;2534.10256049;3978.07692252;4236.53846154;5055.51282225;4338.33333355;4040.51282010;4533.46153909
4602.69230846;4272.43589751;5678.84615691;4299.87179501;5553.84615663;3578.71794733;-0.00000896;-0.00000896;1713.07691773;2498.33332965;4369.74359003;4236.92307693;5257.30769447;4337.30769252;4039.87179446;4598.97435974
4700.25641123;4369.74359003;4996.53846314;4201.28205122;5187.43589945;3479.10256251;-0.00000896;-0.00000896;1777.30768710;2465.38461164;3879.35897360;4237.30769231;5318.58974589;4336.28205149;4038.84615343;4697.43589841
4796.53846272;4438.33333375;5055.89743764;4137.30769210;5357.43589980;3420.25640852;-0.00000896;-0.00000896;1812.69230255;2495.51281683;4600.89743667;4241.28205129;5022.30769398;4335.89743611;4038.84615343;4795.76923195
4895.25641165;4535.38461601;4728.07692412;4102.82051255;5350.00000237;3513.97435745;-0.00000896;-0.00000896;1941.66666181;2467.30768856;4567.82051352;4238.58974359;4596.92307769;4335.25641047;4038.07692266;4894.23077062
4992.82051442;4665.38461629;4465.89743639;4044.74358933;5351.92307929;3610.38461407;-0.00000896;-0.00000896;2037.94871330;2403.84614996;5224.74359183;4267.94871802;5221.53846363;4335.00000021;4038.46153805;4992.56410417
5094.10256591;4798.46153965;4207.69230763;4010.64102516;5382.82051526;3615.12820381;-0.00000896;-0.00000896;2071.92307234;2403.71794483;4697.17948816;4240.51282052;4826.53846279;4333.46153867;4011.53846106;5091.02564284
5222.05128414;4961.28205281;3683.07692190;4005.76923029;5321.53846384;3552.30769085;-0.00000896;-0.00000896;2137.82050838;2433.97435516;5094.48718130;4241.79487180;4962.05128358;4332.43589765;4038.20512779;5222.30769440
5289.74359197;5056.15384789;3944.23076861;3972.05128150;5448.20513078;3513.58974206;-0.00000896;-0.00000896;2363.33332938;2402.30768842;5253.97436113;4269.23076930;4989.35897596;4304.48717963;4038.07692266;5287.94872018
5354.87179724;5157.43589939;3938.97435835;3878.71794796;5186.92307894;3446.79487013;-0.00000896;-0.00000896;2691.41025315;2403.97435509;4928.71795018;4270.76923084;5287.30769454;4301.92307707;4039.74358933;5353.46154083
5350.89743826;5254.61538677;3515.89743437;3811.28205038;5226.53846363;3416.02563929;-0.00000896;-0.00000896;3092.43589501;2435.12820131;5416.53846404;4270.25641033;5548.84615663;4301.66666681;4039.35897395;5353.46154083
4897.69230909;5748.71795192;4236.02564103;3716.66666556;5056.41025815;3119.48717713;-0.00000896;-0.00000896;3677.17948600;3124.35897200;5678.84615691;4305.51282066;6243.07692732;4268.20512828;4071.28205094;4893.84615524
4831.15384741;5809.74359308;3909.61538392;3746.53846050;5154.61538656;2959.10256140;-0.00000896;-0.00000896;3775.38461442;3348.97435710;5513.84615656;4304.35897450;6400.89744049;4268.71794879;4072.82051248;4828.20512946
4797.94871913;5813.58974693;3944.23076861;3782.05128108;5192.30769433;2827.69230471;229.99999153;-0.00000896;3811.66666577;3552.43589598;5122.69230957;4307.17948732;6467.43590216;4241.15384616;4076.02564068;4795.38461657
4760.38461650;5811.02564436;2894.87179203;3873.46153770;5251.92307908;2695.76922751;229.99999153;-0.00000896;3844.10256327;3744.74358871;5185.76923279;4307.30769245;7224.35898069;4241.92307693;4077.30769196;4762.69230881
4726.66666771;5776.41025968;3481.15384456;3906.66666598;5286.92307915;2692.56409930;229.99999153;-0.00000896;3845.76922994;3876.28205052;4861.15384748;4307.05128219;6997.56410840;4240.51282052;4106.15384588;4729.87179592
4667.56410347;5715.76923390;3089.10256167;3906.41025572;5224.23077132;2692.43589417;229.99999153;-0.00000896;3774.99999903;3973.71794817;5456.02564360;4334.87179508;6964.23077500;4241.02564103;4107.94871767;4664.23077014
4662.43589834;5685.64102870;3222.17948503;3906.79487110;5287.43589966;2631.53845814;0.51281155;-0.00000896;3683.71794754;4074.74358940;5356.41025878;4334.10256431;6798.33333876;4240.64102564;4136.28205108;4664.23077014
4664.10256501;5680.89743896;3219.74358759;3909.61538392;5257.94872011;2530.76922716;2.94870899;-0.00000896;3711.02563992;4143.33333313;5745.12820833;4333.71794893;6209.61538879;4236.53846154;4139.61538441;4664.23077014
4635.00000084;5647.94872094;3090.25640783;3905.89743521;5352.30769467;2498.71794504;229.99999153;-0.00000896;3810.64102474;4234.87179488;5814.74359308;4335.00000021;5911.79487534;4238.07692308;4141.02564082;4631.41025725
4598.33333410;5615.76923369;3120.51281815;3845.89743507;5153.71795067;2562.94871441;2.94870899;-0.00000896;3808.46153756;4300.64102578;5553.33333612;4335.51282073;5613.58974651;4234.23076923;4169.35897422;4598.58974436
4568.58974429;5613.97436190;2630.89743250;3844.23076840;5222.94872004;2535.12820152;229.99999153;-0.00000896;3842.94871712;4366.41025669;5386.41025885;4333.33333355;4995.38461699;4235.51282052;4170.76923063;4565.76923147
4565.25641096;5612.82051574;2661.92307359;3844.99999917;5087.69230950;2563.84615031;2.94870899;-0.00000896;3944.10256348;4463.97435946;5551.79487458;4307.56410271;4792.30769349;4235.00000000;4174.74358961;4565.76923147
4533.07692371;5586.28205413;3185.25640804;3847.56410173;5321.92307922;2434.87179105;229.99999153;-0.00000896;3942.43589681;4628.84615468;4864.48718081;4306.79487194;4795.89743708;4236.02564103;4175.76923063;4532.94871858
4529.48718012;5549.35897714;2696.79486853;3845.64102481;5450.64102822;2302.56409847;2.94870899;-0.00000896;3972.17948663;4796.92307811;5095.12820694;4307.43589758;4663.84615475;4234.23076923;4203.84615378;4532.94871858
4531.02564165;5484.61538726;3514.74358822;3847.17948635;5515.38461810;2206.92307262;229.99999153;-0.00000896;4106.79487152;4896.02564242;5090.38461720;4306.79487194;5224.48718158;4233.97435898;4205.12820506;4532.94871858
4530.12820576;5422.30769481;2797.30768925;3877.69230693;5415.89743840;2269.35897019;2.94870899;-0.00000896;4201.28205122;4927.43589890;5652.82051581;4305.25641040;4892.69230909;4208.58974352;4208.07692301;4532.94871858
4530.00000063;5419.23077174;3878.20512744;3942.56410194;5357.43589980;2396.28204739;229.99999153;-0.00000896;4170.38461525;4962.69230922;5255.00000216;4302.69230784;5092.05128386;4205.25641019;4235.00000000;4533.07692371
4501.53846210;5421.02564353;3809.87179397;4004.99999952;5352.56410493;2302.82050872;2.94870899;-0.00000896;4108.97435870;5121.41025829;4896.02564242;4301.41025655;5091.66666848;4207.05128199;4236.53846154;4500.25641082
4500.51282107;5417.69231020;3844.74358891;4043.07692266;5252.05128421;2167.69230332;229.99999153;-0.00000896;4169.87179474;5317.43589973;4794.23077042;4301.02564117;5318.71795101;4206.92307686;4240.12820513;4500.25641082
4496.79487235;5356.02564339;4010.12820465;4109.74358947;5317.30769460;2102.17948267;2.94870899;-0.00000896;4236.02564103;5514.35897707;4666.92307783;4299.87179501;4991.79487340;4206.92307686;4240.38461539;4500.38461594
4469.61538511;5318.58974589;4074.48717914;4175.76923063;5350.89743826;2172.82050845;229.99999153;-0.00000896;4170.51282038;5617.43590036;4529.48718012;4274.74358982;5125.64102752;4206.53846147;4268.97435905;4467.56410305
4470.64102613;5253.97436113;3774.48717852;4235.76923077;5322.69230999;2239.87179064;2.94870899;-0.00000896;4137.30769210;5777.30769558;4075.89743555;4270.64102571;4894.48718088;4207.56410250;4268.46153853;4467.69230818
4470.25641075;5190.76923279;4007.56410208;4241.15384616;5321.66666896;2168.84614947;229.99999153;-0.00000896;4074.74358940;5876.53846502;4142.56410236;4272.17948725;4601.92307769;4208.84615378;4270.00000007;4467.69230818
4469.10256459;5091.41025822;3548.84615239;4266.79487187;5515.12820784;2173.20512383;2.94870899;-0.00000896;4005.38461490;5911.92308047;3743.58974255;4268.20512828;4897.43589883;4208.84615378;4271.02564110;4467.69230818
4497.56410312;4992.69230929;3976.15384560;4236.28205129;5324.61538691;2330.25640623;229.99999153;-0.00000896;3911.41025572;5849.87179828;3482.30769071;4267.82051289;4963.07692461;4234.61538462;4272.94871802;4500.51282107
4529.61538524;4927.56410403;3617.56410125;4207.43589737;5354.23077160;2337.43589341;2.94870899;-0.00000896;3841.41025558;5816.79487513;3322.69230575;4241.79487180;4799.35897554;4208.97435891;4273.20512828;4533.33333396
4566.53846224;4863.84615517;4633.20512904;4202.56410250;5291.92307915;2369.35897040;229.99999153;-0.00000896;3880.64102488;5815.12820847;2822.94871496;4267.30769238;4729.61538566;4207.94871788;4274.74358982;4566.15384685
4569.74359044;4827.05128331;4665.51282142;4206.53846147;5353.71795108;2532.94871434;2.94870899;-0.00000896;3908.71794803;5748.20513141;2888.46153562;4239.74358975;4731.15384720;4208.84615378;4299.48717963;4566.15384685
4565.64102634;4796.15384734;4961.41025794;4201.79487173;5155.38461733;2626.02563762;229.99999153;-0.00000896;3874.23076847;5781.41025968;2987.94871531;4241.79487180;4598.58974436;4235.12820513;4300.64102578;4566.15384685
4504.10256466;4765.38461650;4990.76923237;4139.87179467;5353.46154083;2561.53845800;2.94870899;-0.00000896;3939.74358912;5783.58974686;2924.99999722;4239.10256411;4829.61538587;4236.41025641;4301.15384630;4500.38461594
4466.02564152;4731.02564207;4930.64102710;4103.58974332;5157.69230964;2469.23076548;229.99999153;-0.00000896;3972.82051227;5842.30769572;2958.20512550;4237.69230770;4433.58974401;4236.28205129;4300.89743604;4467.56410305
4433.33333375;4697.05128303;5648.97436197;4106.02564075;5220.89743799;2431.41025259;2.94870899;-0.00000896;4010.76923029;5875.12820861;2665.51281718;4237.69230770;5154.48718144;4208.84615378;4303.71794886;4434.74359016
4403.46153881;4633.58974443;5324.23077153;4141.02564082;5251.41025857;2432.82050900;229.99999153;-0.00000896;4076.66666632;5882.43590091;3024.99999743;4235.00000000;4274.35897443;4235.76923077;4302.94871809;4401.92307727
4372.94871823;4601.02564179;5390.00000244;4174.23076910;5255.51282267;2469.35897061;2.94870899;-0.00000896;4103.58974332;5914.61538816;2893.97435613;4236.53846154;4635.51282135;4236.41025641;4303.33333348;4369.10256438
4340.00000021;4564.87179557;5318.46154076;4236.15384616;5090.64102745;2500.89743222;229.99999153;-0.00000896;4074.10256376;5980.64102933;3054.87179237;4234.35897436;4628.97435981;4236.92307693;4302.94871809;4336.41025662
4307.43589758;4503.71794928;4830.38461664;4272.69230777;5186.28205330;2495.64102196;1.53845258;-0.00000896;4103.97435870;6045.25641408;2994.74358711;4235.51282052;4469.35897485;4237.94871795;4303.71794886;4303.58974373
4273.58974366;4438.71794914;5059.10256584;4306.02564117;5187.17948920;2499.48717581;3.58973463;-0.00000896;4075.25640991;6013.20513196;3184.23076701;4207.82051275;4499.35897492;4237.30769231;4303.97435912;4270.76923084
4239.35897436;4400.12820548;4568.71794942;4336.53846175;5092.82051463;2501.02563735;-0.00000896;-0.00000896;4042.30769189;5978.97436266;3189.61538240;4208.33333327;4667.69230860;4236.28205129;4304.10256425;4238.07692308
4202.17948711;4337.69230790;4273.71794879;4340.25641047;5353.46154083;2528.20512460;229.99999153;-0.00000896;4006.15384567;5915.51282406;3085.51281808;4207.05128199;4733.71794976;4235.38461539;4304.10256425;4205.25641019
4143.46153826;4303.71794886;4137.56410236;4365.64102592;5251.66666882;2529.48717588;229.99999153;-0.00000896;3971.53846099;5909.35897791;3515.51281899;4233.84615385;4631.53846238;4235.76923077;4304.10256425;4139.61538441
4137.17948697;4271.53846161;3744.87179383;4366.02564131;5259.23077139;2529.74358613;229.99999153;-0.00000896;3938.71794810;5878.46154194;3453.71794705;4207.05128199;5319.74359204;4235.38461539;4304.74358989;4139.61538441
4106.79487152;4240.51282052;3647.56410132;4366.02564131;5193.71795074;2561.92307338;229.99999153;-0.00000896;3906.02564033;5877.43590091;3741.92307588;4206.92307686;4830.25641151;4236.15384616;4304.35897450;4106.79487152
4103.07692280;4208.97435891;3878.84615309;4333.84615406;5189.35897638;2566.15384261;-0.00000896;-0.00000896;3811.15384525;5849.10256751;3939.87179425;4208.71794865;4894.87179627;4236.02564103;4304.61538476;4106.79487152
4076.79487145;4203.20512814;3680.38461421;4273.33333341;5325.00000230;2530.51281690;-0.00000896;-0.00000896;3780.38461442;5878.84615732;4169.10256397;4235.25641026;4599.48718026;4236.92307693;4304.35897450;4073.84615350
4069.74358940;4173.20512807;4104.74358947;4239.35897436;5289.10256633;2532.17948357;-0.00000896;-0.00000896;3844.35897353;5844.74359315;4201.15384609;4207.30769224;4635.64102648;4235.00000000;4305.00000014;4073.84615350
4076.92307658;4142.05128185;4532.43589807;4235.51282052;4958.71795025;2564.99999646;-0.00000896;-0.00000896;3843.07692225;5813.97436231;4235.38461539;4207.56410250;4562.43589813;4235.76923077;4305.38461553;4073.84615350
4077.69230735;4139.23076903;4306.79487194;4206.15384609;5356.15384852;2562.82050928;-0.00000896;-0.00000896;3875.64102488;5882.69231117;4174.10256397;4205.38461532;4701.28205226;4235.64102564;4304.35897450;4073.84615350
4076.15384581;4135.64102544;4564.23076993;4206.28205122;5025.00000167;2400.64102175;-0.00000896;-0.00000896;3977.05128150;6046.92308075;4208.71794865;4233.97435898;4433.71794914;4208.84615378;4307.05128219;4073.84615350
4042.94871754;4071.15384581;4468.97435946;4207.43589737;5191.79487381;2232.17948294;-0.00000896;-0.00000896;4044.10256369;6241.41026065;4274.48717956;4206.53846147;4699.10256508;4234.61538462;4304.61538476;4041.02564061
4007.56410208;3912.30769162;4466.79487229;4236.15384616;5121.41025829;2074.23076465;-0.00000896;-0.00000896;4070.64102530;6503.84615864;4304.61538476;4206.41025634;4470.25641075;4207.94871788;4304.48717963;4008.20512772
3976.15384560;3711.02563992;4169.74358961;4235.12820513;5321.41025871;1976.92307213;-0.00000896;-0.00000896;4004.35897388;6696.92308214;4037.30769189;4208.84615378;4859.23077055;4205.89743583;4303.58974373;3975.38461483
4004.74358926;3484.48717789;4634.10256494;4234.48717949;5157.30769426;2104.35896985;-0.00000896;-0.00000896;3879.10256334;6668.20513335;4233.97435898;4235.76923077;4272.56410264;4209.10256404;4300.25641040;4008.20512772
4040.64102523;3317.17948524;4630.89743674;4237.30769231;5291.79487402;2140.51281607;-0.00000896;-0.00000896;3873.07692232;6602.82051783;4403.97435933;4237.94871795;4962.05128358;4234.48717949;4302.05128219;4041.02564061
4102.94871767;3121.02563867;3911.28205059;4238.71794872;5419.23077174;2042.94871330;-0.00000896;-0.00000896;3911.92307623;6501.02564582;4339.74358996;4240.51282052;4665.64102655;4209.10256404;4300.89743604;4106.66666639
4137.94871774;2923.46153569;4173.07692294;4272.17948725;5225.89743799;2073.84614926;-0.00000896;-0.00000896;4040.38461497;6276.79487611;4302.82051296;4240.89743590;4857.94871927;4233.97435898;4299.61538476;4139.48717928
4168.71794858;2764.10256098;4103.20512793;4333.84615406;5254.74359190;2266.92307276;-0.00000896;-0.00000896;4103.58974332;6046.92308075;4728.58974464;4241.15384616;4570.00000070;4208.46153840;4271.41025648;4172.43589730
4168.97435884;2698.58974033;3973.20512765;4365.25641054;5255.89743806;2367.82050886;-0.00000896;-0.00000896;4140.51282031;5842.56410597;4371.28205156;4268.07692315;4893.20512960;4208.46153840;4274.10256418;4172.43589730
4139.48717928;2632.56409916;2825.25640727;4372.43589772;5155.76923272;2463.33332958;-0.00000896;-0.00000896;4170.76923063;5618.84615677;4893.84615524;4270.64102571;5350.12820749;4208.71794865;4268.33333341;4139.61538441
4105.25640998;2598.71794525;2889.35897151;4399.48717984;5123.84615573;2531.53845793;-0.00000896;-0.00000896;4171.02564089;5385.76923321;5186.28205330;4273.58974366;5160.89743785;4208.20512814;4268.07692315;4106.79487152
4042.94871754;2594.48717602;2100.64102113;4398.71794907;4962.17948871;2564.61538108;-0.00000896;-0.00000896;4173.33333320;5189.61538663;5842.43590084;4301.02564117;5061.66666841;4234.61538462;4239.48717949;4041.15384574
3979.35897381;2565.89743236;3905.64102495;4403.97435933;5254.23077139;2532.17948357;-0.00000896;-0.00000896;4234.23076923;4992.69230929;4699.61538559;4301.28205142;4894.10256550;4235.25641026;4238.33333334;3975.51281996
3910.76923008;2565.25640672;3548.07692162;4464.35897485;4726.79487284;2497.30768863;-0.00000896;-0.00000896;4237.05128206;4864.48718081;5190.12820715;4303.84615399;5191.28205330;4234.10256411;4234.35897436;3909.99999931
3841.02564020;2593.97435550;4106.53846126;4499.23076979;5058.33333507;2527.69230408;-0.00000896;-0.00000896;4137.94871774;4761.15384727;5516.02564374;4303.07692322;5027.30769398;4208.84615378;4207.56410250;3844.35897353
3776.79487083;2625.64102224;3483.71794712;4502.43589800;5026.15384783;2627.43589403;-0.00000896;-0.00000896;3880.76923001;4667.56410347;5288.71795095;4304.23076937;5520.51282323;4209.10256404;4203.71794865;3778.71794775
3774.74358877;2629.74358634;3874.87179411;4468.58974408;5021.53846321;2596.28204781;-0.00000896;-0.00000896;3709.99999889;4568.58974429;5454.10256668;4335.12820534;5547.05128483;4235.25641026;4175.38461525;3778.71794775
3778.33333236;2600.25640679;3552.30769085;4435.25641068;5220.12820722;2497.43589376;-0.00000896;-0.00000896;3618.07692176;4371.92307720;5646.41025940;4333.33333355;5351.66666903;4236.79487180;4174.48717935;3778.58974262
3809.10256320;2599.10256063;3943.84615322;4431.79487222;5024.48718116;2566.28204774;229.99999153;-0.00000896;3615.25640894;4240.89743590;5650.38461838;4334.48717970;5382.69231013;4235.89743590;4170.38461525;3811.41025551
3814.61538372;2627.05127865;3743.46153742;4433.33333375;5057.05128379;2626.53845814;-0.00000896;-0.00000896;3617.82051150;4102.69230742;5915.64102919;4334.61538483;5029.10256577;4235.89743590;4168.97435884;3811.41025551
3846.41025558;2659.48717616;3946.15384553;4433.33333375;5188.84615587;2596.15384268;1.79486283;-0.00000896;3649.61538337;4004.48717900;5587.43590029;4333.58974380;5027.43589911;4238.33333334;4140.25641005;3844.23076840
3877.30769155;2664.35897103;4008.46153798;4432.69230811;5094.35897617;2598.84615038;-0.00000896;-0.00000896;3680.51281934;3877.43589668;5521.53846425;4334.74358996;5225.89743799;4237.56410257;4137.17948697;3877.05128129
3909.74358905;2694.87179161;3840.76922994;4432.05128247;4990.00000160;2629.35897096;229.99999153;-0.00000896;3680.76922959;3807.43589654;5252.82051498;4334.61538483;5062.43589918;4237.56410257;4109.87179460;3909.87179418
3942.82051220;2697.43589417;4234.74358975;4436.02564145;5288.71795095;2628.20512480;229.99999153;-0.00000896;3709.23076812;3682.05128087;5384.48718192;4336.41025662;4696.79487277;4240.12820513;4108.07692280;3942.69230707
3975.38461483;2724.48717629;5325.00000230;4465.64102613;5153.58974554;2695.38461212;229.99999153;-0.00000896;3678.20512703;3579.87179349;5975.64102933;4306.41025655;4826.66666792;4239.61538462;4104.23076896;3975.64102509
4007.05128157;2757.17948406;4598.97435974;4498.46153902;5219.87179696;2793.97435592;229.99999153;-0.00000896;3648.71794747;3387.82051102;6011.79487555;4305.76923091;4077.05128171;4238.58974359;4104.48717921;4008.46153798
4039.48717907;2823.07692009;5678.97436204;4503.71794928;5055.64102738;2822.56409958;229.99999153;-0.00000896;3615.76922945;3224.48717734;5421.02564353;4333.33333355;4398.46153881;4266.66666674;4074.48717914;4041.28205087
4071.66666632;2892.17948433;5520.00000271;4501.92307748;4925.12820659;2829.48717650;229.99999153;-0.00000896;3646.66666542;3090.89743347;5060.76923251;4306.53846168;3846.53846071;4267.43589751;4070.89743555;4074.10256376
4102.94871767;2992.56409993;5783.84615712;4497.82051338;5125.64102752;2926.53845876;229.99999153;-0.00000896;3649.87179362;2928.84615107;4666.66666757;4303.71794886;3581.02563964;4267.56410264;4069.99999966;4106.92307665
4107.30769203;3125.25640790;5713.33333646;4471.53846203;4956.02564256;3052.82051032;229.99999153;-0.00000896;3614.23076791;2726.79486860;4334.87179508;4302.69230784;3449.35897270;4268.33333341;4043.71794830;4106.92307665
4108.97435870;3282.69230568;5583.71795157;4496.79487235;5349.87179724;2955.51281781;229.99999153;-0.00000896;3611.79487048;2627.30768891;4497.69230825;4304.87179501;2856.66666375;4267.82051289;4043.20512779;4106.92307665
4108.84615357;3348.33333146;5620.12820805;4497.05128261;5093.07692489;2889.48717664;229.99999153;-0.00000896;3580.76922938;2527.94871434;3944.87179425;4300.51282066;2136.41025197;4268.58974366;4040.51282010;4106.92307665
4106.66666639;3416.66666493;5515.25641297;4501.02564159;5252.56410472;2986.79486916;229.99999153;-0.00000896;3512.05128053;2401.02563714;2566.41025287;4300.51282066;2301.15384206;4267.94871802;4039.23076882;4106.92307665
4107.94871767;3517.05128053;5615.76923369;4501.92307748;5025.89743757;3086.41025398;229.99999153;-0.00000896;3382.94871615;2367.17948322;3683.33333216;4301.79487194;3282.30769030;4267.56410264;4038.84615343;4106.92307665
4135.51282031;3616.41025509;5613.07692600;4468.97435946;5255.76923293;3058.46153596;229.99999153;-0.00000896;3349.10256223;2331.53845751;3514.48717796;4301.92307707;3809.10256320;4270.00000007;4038.07692266;4139.74358954
4135.89743569;3714.74358864;5258.33333549;4403.33333368;5160.25641221;3056.79486930;229.99999153;-0.00000896;3385.76922897;2334.10256008;5253.71795088;4299.61538476;4103.84615357;4269.61538469;4037.30769189;4139.61538441
4108.97435870;3780.89743493;5614.61538754;4369.23076951;5286.66666889;2990.76922813;229.99999153;-0.00000896;3385.25640845;2332.17948315;5059.48718123;4272.30769238;3515.12820360;4270.38461546;4011.66666618;4106.79487152
4104.48717921;3844.87179404;5748.20513141;4306.66666681;5120.51282239;2987.94871531;229.99999153;-0.00000896;3320.12820319;2364.23076527;5451.79487437;4273.71794879;4665.89743680;4272.05128212;4011.15384567;4106.66666639
4102.94871767;3908.33333264;5153.84615580;4273.71794879;5157.43589939;2988.84615121;229.99999153;-0.00000896;3251.53845946;2396.41025252;3746.92307588;4273.07692315;5484.35897700;4271.28205136;4011.28205080;4106.66666639
4137.05128185;3944.99999938;6011.66667042;4269.10256418;5054.74359148;2927.56409979;229.99999153;-0.00000896;3183.84615163;2463.46153471;1513.58973783;4270.64102571;6433.84615851;4272.56410264;4010.76923029;4139.48717928
4201.02564096;4006.41025593;6143.07692711;4241.66666667;5188.20513022;2928.20512543;229.99999153;-0.00000896;3157.56410027;2431.15384234;1283.71794247;4270.12820520;6601.92308193;4270.38461546;4010.12820465;4205.12820506
4235.12820513;4042.69230728;5912.69231124;4240.25641026;5092.30769412;2957.43589473;229.99999153;-0.00000896;3224.23076708;2370.38461143;1149.35896783;4272.17948725;6504.10256890;4273.58974366;4010.51282003;4237.94871795
4237.56410257;4073.97435863;5776.92308019;4207.43589737;5054.74359148;2989.10256147;229.99999153;-0.00000896;3250.76922869;2432.17948336;1379.48717345;4271.66666674;6242.17949142;4271.92307700;4009.99999952;4237.94871795
4239.87179488;4077.69230735;5421.02564353;4174.99999986;5160.38461733;3022.30768974;229.99999153;-0.00000896;3222.05127990;2430.12820131;1449.35896846;4270.12820520;6205.89744007;4272.30769238;4006.79487131;4237.82051282
4270.51282059;4137.17948697;4990.76923237;4141.79487159;5188.71795074;3058.97435648;229.99999153;-0.00000896;3254.87179279;2332.94871392;1903.97435404;4271.28205136;6008.20513196;4273.07692315;4009.61538413;4270.64102571
4302.43589758;4207.82051275;5320.51282281;4140.51282031;5121.92307880;3090.12820270;229.99999153;-0.00000896;3284.87179286;2168.71794434;2332.17948315;4269.87179495;5875.12820861;4271.41025648;4009.74358926;4303.46153860
4304.87179501;4335.89743611;4859.74359107;4141.28205108;4960.89743743;3122.05127969;229.99999153;-0.00000896;3417.30769057;2103.97435446;2794.99999695;4270.76923084;5879.35897784;4272.05128212;4009.87179439;4303.46153860
4274.61538469;4434.74359016;4634.48718032;4172.69230756;5061.79487354;3151.28204899;229.99999153;-0.00000896;3387.30769050;2139.35896992;3315.12820319;4274.10256418;5646.41025940;4270.89743597;4010.25640977;4270.64102571
4273.58974366;4531.28205191;4502.30769287;4141.02564082;5027.94871962;3256.02563894;229.99999153;-0.00000896;3184.99999778;2166.53845716;3974.23076868;4273.58974366;5650.64102863;4271.41025648;4010.76923029;4270.64102571
4335.38461560;4662.05128296;4300.51282066;4075.25640991;5251.53846370;3321.53845960;229.99999153;-0.00000896;3056.53845904;2138.71794427;4438.84615427;4273.71794879;5453.46154104;4270.38461546;4011.28205080;4336.28205149
4401.53846189;4825.00000125;4204.74358968;4006.53846106;5094.10256591;3321.92307498;229.99999153;-0.00000896;3059.35897186;2135.12820068;4568.20512890;4270.25641033;5486.41025905;4269.48717956;4011.79487131;4401.79487215
4464.23076972;4990.12820673;3745.89743486;3913.46153777;5160.38461733;3253.46153638;229.99999153;-0.00000896;3252.56410048;2172.94871357;4960.51282205;4300.64102578;5191.92307894;4270.89743597;4037.17948677;4467.30769280
4469.23076972;5127.69230957;3807.56410166;3880.89743514;5122.30769419;3092.69230526;229.99999153;-0.00000896;3486.92307533;2330.38461136;5092.05128386;4301.92307707;5224.35897645;4270.89743597;4038.07692266;4467.30769280
4466.15384664;5286.28205351;3846.15384532;3880.51281975;5188.33333535;3055.12820263;229.99999153;-0.00000896;3711.66666556;2497.05127837;5219.35897645;4305.12820527;4795.64102683;4268.97435905;4041.02564061;4467.30769280
4433.46153888;5354.74359211;3775.51281954;3908.71794803;5259.35897652;2955.25640755;229.99999153;-0.00000896;3844.48717866;2697.05127879;5455.89743847;4300.89743604;5321.02564332;4267.56410264;4040.89743548;4434.48717991
4370.51282079;5452.05128463;3612.56410125;3940.89743528;4893.20512960;2927.94871517;-0.00000896;-0.00000896;3811.79487090;2858.46153555;5355.51282288;4303.97435912;5322.17948948;4268.33333341;4044.74358933;4368.97435926
4338.84615406;5551.15384894;3874.23076847;3972.30769176;5125.38461726;2988.07692044;1.41024745;-0.00000896;3584.61538323;2961.41025370;5553.71795150;4305.51282066;5289.87179710;4239.74358975;4071.15384581;4336.15384637
4366.79487208;5652.30769530;3875.76923001;3913.71794803;5120.38461726;2829.87179189;229.99999153;-0.00000896;3680.38461421;3185.38461316;5415.64102815;4307.05128219;5219.87179696;4241.15384616;4073.58974325;4368.84615413
4369.10256438;5717.69231082;3646.15384491;3909.35897367;5222.69230978;2728.33333014;1.41024745;-0.00000896;3811.02564013;3354.48717761;5551.79487458;4332.43589765;4793.97436016;4239.61538462;4076.28205094;4368.84615413
4371.79487208;5777.82051609;3709.87179376;3912.05128136;5091.15384796;2698.07691981;-0.00000896;-0.00000896;3774.87179390;3545.51281906;5585.64102849;4332.94871816;4567.94871865;4238.07692308;4104.23076896;4368.84615413
4403.33333368;5813.97436231;3714.74358864;3944.87179425;5222.17948927;2659.10256077;-0.00000896;-0.00000896;3713.33333223;3742.94871691;5745.12820833;4305.89743604;4366.41025669;4237.17948718;4108.33333306;4401.79487215
4465.51282100;5847.17949059;3978.58974304;3976.41025586;5054.48718123;2564.10256056;-0.00000896;-0.00000896;3710.76922966;3939.74358912;5751.28205448;4334.23076944;4037.43589702;4236.28205129;4110.12820485;4467.43589793
4503.84615441;5850.12820854;4074.61538427;4007.05128157;5025.76923244;2535.12820152;-0.00000896;-0.00000896;3682.82051164;4038.71794830;5749.23077243;4333.58974380;4011.41025593;4236.41025641;4138.71794851;4500.25641082
4536.02564165;5848.58974700;3157.30769002;4009.61538413;5126.02564291;2494.48717581;-0.00000896;-0.00000896;3841.15384532;4241.92307693;5649.35897735;4332.94871816;3480.51281892;4235.64102564;4141.53846133;4533.07692371
4534.74359037;5815.38461872;3285.12820312;4010.51282003;5252.94872011;2364.99999604;-0.00000896;-0.00000896;3910.76923008;4366.02564131;5514.61538733;4335.76923098;3318.07692114;4234.61538462;4169.99999986;4533.07692371
4534.35897499;5782.30769558;2698.84615058;4038.71794830;5193.20513022;2303.07691898;-0.00000896;-0.00000896;3846.79487096;4501.53846210;4924.87179633;4335.25641047;3551.66666521;4234.74358975;4174.61538448;4533.07692371
4535.12820576;5746.28205448;3286.92307491;4070.38461504;5257.56410472;2233.46153423;-0.00000896;-0.00000896;3879.35897360;4662.30769321;4661.66666757;4332.69230790;3612.69230638;4208.84615378;4175.51282038;4533.20512883
4502.17948774;5681.15384922;2560.25640672;4073.46153812;5126.92307880;2166.28204691;-0.00000896;-0.00000896;4070.38461504;4796.02564221;4698.07692405;4333.84615406;3812.05128115;4234.61538462;4201.79487173;4500.38461594
4434.87179529;5583.84615670;2727.30768912;4072.94871761;5062.43589918;2330.64102161;-0.00000896;-0.00000896;4104.61538434;4829.10256536;4071.92307658;4305.38461553;4241.79487180;4209.10256404;4204.61538455;4434.74359016
4335.25641047;5552.05128483;3283.58974158;4069.99999966;5160.38461733;2560.12820159;-0.00000896;-0.00000896;4074.23076889;4863.20512953;4307.05128219;4305.25641040;4434.35897478;4233.84615385;4205.64102558;4336.28205149
4205.64102558;5582.30769516;3222.56410041;4043.58974318;5087.82051463;2336.02563700;-0.00000896;-0.00000896;4201.66666660;5021.66666834;4403.20512856;4305.12820527;5025.38461706;4208.33333327;4233.97435898;4204.87179481
4072.05128171;5548.20513099;3777.69230672;4038.71794830;5126.66666855;2107.43589292;-0.00000896;-0.00000896;4303.20512835;5187.05128407;4467.69230818;4305.38461553;5093.97436078;4207.94871788;4235.76923077;4073.58974325
3971.79487124;5482.43590008;4334.61538483;4039.23076882;5060.51282225;2172.30768793;-0.00000896;-0.00000896;4239.48717949;5284.23077146;4204.74358968;4301.28205142;5320.51282281;4234.35897436;4238.84615385;3975.12820458
3908.07692239;5389.74359218;4104.99999973;4040.64102523;5351.41025878;2067.94871337;-0.00000896;-0.00000896;4205.51282045;5455.12820770;4337.94871816;4272.94871802;6108.97436294;4206.28205122;4241.15384616;3909.48717880
3880.51281975;5258.20513036;4497.56410312;4039.74358933;5154.35897631;1907.17948225;-0.00000896;-0.00000896;4235.25641026;5645.51282350;4203.46153840;4274.48717956;6733.07692836;4206.15384609;4266.92307700;3876.66666591
3945.89743528;5124.74359162;4596.15384692;4072.94871761;5190.38461740;1973.84614906;-0.00000896;-0.00000896;4009.35897388;5747.05128525;3776.15384518;4273.07692315;6042.05128588;4206.53846147;4269.10256418;3942.43589681
4040.38461497;5055.64102738;4469.10256459;4109.10256383;5191.41025843;2042.56409791;-0.00000896;-0.00000896;3913.07692239;5751.02564423;3418.58974186;4272.56410264;7124.74359586;4204.87179481;4271.79487187;4040.89743548
4201.53846147;4929.61538608;4535.89743653;4107.82051255;5221.66666876;2106.92307241;-0.00000896;-0.00000896;3978.97435842;5746.92308012;3484.23076764;4271.41025648;6143.07692711;4202.30769224;4270.64102571;4204.99999993
4333.84615406;4831.02564228;4628.46153930;4104.74358947;5186.53846356;2104.87179036;-0.00000896;-0.00000896;4037.05128164;5746.02564423;3315.38461344;4269.87179495;4863.33333466;4204.61538455;4272.05128212;4336.28205149
4435.25641068;4762.05128317;4272.82051289;4138.71794851;5351.79487416;2072.69230311;-0.00000896;-0.00000896;4137.05128185;5744.61538782;2823.84615086;4267.17948725;3978.71794817;4203.33333327;4272.82051289;4434.74359016
4498.33333389;4666.92307783;4468.97435946;4173.20512807;5289.48718171;2107.43589292;-0.00000896;-0.00000896;4303.46153860;5682.17949024;2595.25640679;4267.56410264;3348.71794685;4206.92307686;4271.92307700;4500.38461594
4498.46153902;4599.61538538;4433.33333375;4206.28205122;4994.23077083;2202.17948288;-0.00000896;-0.00000896;4340.00000021;5651.92307991;2003.58973887;4267.30769238;3218.58974144;4205.51282045;4273.71794879;4500.51282107
4467.30769280;4565.12820583;4464.48717998;4267.17948725;5220.64102773;2236.02563679;-0.00000896;-0.00000896;4301.15384630;5652.56410556;3059.99999750;4266.79487187;3842.94871712;4205.76923070;4274.61538469;4467.69230818
4435.76923119;4530.38461601;4404.74359009;4303.71794886;4864.10256543;2234.74358551;229.99999153;-0.00000896;4270.76923084;5713.84615698;3287.56410055;4238.20512821;4135.38461518;4206.53846147;4299.74358989;4434.87179529
4401.28205163;4464.87179536;4601.79487256;4336.53846175;5288.84615607;2173.58973922;229.99999153;-0.00000896;4271.66666674;5713.71795185;3811.66666577;4240.51282052;4234.74358975;4207.30769224;4299.61538476;4402.17948753
4335.00000021;4400.64102599;5258.71795088;4366.15384644;5062.43589918;2365.64102168;229.99999153;-0.00000896;4234.87179488;5647.82051581;3581.15384477;4239.48717949;4761.02564214;4205.38461532;4299.74358989;4336.53846175
4268.33333341;4371.53846182;4831.66666792;4339.10256431;5224.61538670;2402.82050893;229.99999153;-0.00000896;4102.69230742;5649.23077222;3188.20512599;4240.76923077;4467.30769280;4207.69230763;4300.00000014;4270.89743597
4208.20512814;4365.76923105;5059.87179661;4336.92307714;4929.48718095;2239.87179064;-0.00000896;-0.00000896;4011.02564054;5683.20513127;3320.89743396;4240.00000000;4496.66666723;4207.82051275;4300.25641040;4205.25641019
4203.58974352;4332.82051303;5253.84615600;4335.38461560;5122.05128393;2237.30768807;67.05127323;-0.00000896;3977.82051227;5682.82051588;3351.66666479;4238.84615385;5087.69230950;4207.05128199;4300.51282066;4205.25641019
4173.46153833;4268.33333341;5321.02564332;4332.82051303;5056.66666841;2396.53845765;229.99999153;-0.00000896;3910.89743521;5649.87179786;3709.87179376;4238.58974359;4693.58974457;4206.79487173;4299.74358989;4172.43589730
4172.56410243;4236.53846154;4270.64102571;4303.07692322;5156.66666862;2465.12820138;67.05127323;-0.00000896;3877.05128129;5647.43590043;3091.79486937;4238.84615385;4926.02564249;4208.07692301;4300.64102578;4172.30769217
4173.84615371;4234.48717949;4727.43589848;4272.17948725;5091.79487361;2431.15384234;229.99999153;-0.00000896;3910.89743521;5648.71795171;3284.48717748;4237.30769231;4010.51282003;4206.92307686;4300.89743604;4172.30769217
4170.51282038;4207.05128199;4337.43589765;4269.10256418;5027.43589911;2270.76922660;67.05127323;-0.00000896;3944.87179425;5747.82051602;3581.53846015;4237.82051282;4470.51282100;4206.53846147;4300.76923091;4172.30769217
4141.41025621;4170.89743576;4333.33333355;4270.89743597;5257.43589959;2141.15384171;229.99999153;-0.00000896;3971.66666611;5844.74359315;3877.05128129;4239.74358975;4106.66666639;4233.84615385;4300.25641040;4139.48717928
4138.97435877;4076.02564068;4365.51282079;4266.66666674;5088.07692489;2101.66666215;67.05127323;-0.00000896;3974.74358919;5974.61538830;3946.28205066;4239.10256411;4335.76923098;4208.33333327;4300.51282066;4139.48717928
4109.87179460;3972.94871740;4568.07692378;4238.33333334;4895.89743729;1937.69230283;229.99999153;-0.00000896;3979.10256355;6106.02564499;4037.05128164;4239.74358975;4109.99999973;4206.53846147;4302.05128219;4106.66666639
4106.53846126;3781.15384518;4169.74358961;4208.58974352;5024.23077090;1745.89743062;67.05127323;-0.00000896;4011.02564054;6272.05128636;4008.33333285;4239.35897436;4367.69230797;4207.05128199;4299.48717963;4106.66666639
4077.82051248;3552.05128060;4732.56410361;4204.10256404;5251.53846370;1772.56409736;229.99999153;-0.00000896;4070.76923043;6272.43590175;4038.20512779;4268.33333341;4500.38461594;4208.33333327;4271.41025648;4073.84615350
4075.38461504;3353.33333146;4464.61538511;4204.99999993;5125.00000188;1942.56409770;67.05127323;-0.00000896;4042.17948677;6174.35897846;4172.56410243;4267.56410264;4759.61538573;4206.79487173;4273.20512828;4073.84615350
4076.79487145;3251.53845946;4171.79487166;4205.76923070;5192.82051484;1940.38461052;229.99999153;-0.00000896;4073.46153812;6104.74359371;4468.46153895;4268.71794879;4365.25641054;4205.51282045;4271.79487187;4073.84615350
4103.58974332;3089.99999757;4272.30769238;4235.00000000;5286.28205351;1940.38461052;67.05127323;-0.00000896;4169.87179474;5977.17949087;4305.51282066;4269.74358982;4701.15384713;4207.56410250;4270.76923084;4106.66666639
4102.82051255;2955.51281781;3517.43589591;4269.48717956;5024.48718116;2034.87179022;229.99999153;-0.00000896;4208.20512814;5848.46154187;4305.89743604;4271.79487187;4695.25641123;4206.66666660;4268.46153853;4106.66666639
4076.28205094;2825.51281753;3417.69230596;4306.41025655;5090.38461720;2072.82050824;67.05127323;-0.00000896;4237.69230770;5748.33333653;4175.38461525;4271.53846161;4569.61538531;4207.30769224;4267.30769238;4073.84615350
4072.56410222;2697.82050956;3577.94871656;4366.28205156;5027.56410424;2107.17948267;229.99999153;-0.00000896;4239.48717949;5618.20513113;4597.69230846;4301.02564117;4825.64102690;4206.66666660;4239.48717949;4073.97435863
4043.46153805;2597.05127858;3451.79487013;4402.94871830;5025.00000167;2234.48717525;67.05127323;-0.00000896;4235.12820513;5482.05128470;4762.56410368;4304.10256425;4438.33333375;4206.92307686;4237.69230770;4041.15384574
4039.74358933;2529.48717588;4103.20512793;4437.43589786;5023.71795039;2332.56409854;229.99999153;-0.00000896;4203.20512814;5253.97436113;4829.48718074;4302.17948732;4831.28205254;4208.71794865;4234.61538462;4041.15384574
4010.76923029;2494.74358606;3645.51281927;4500.00000056;4897.82051421;2366.79486784;67.05127323;-0.00000896;4234.10256411;4960.00000153;4792.94871913;4304.23076937;4632.94871879;4207.17948711;4205.12820506;4008.46153798
3973.33333278;2496.41025273;3848.07692225;4568.71794942;5153.20513015;2562.69230415;229.99999153;-0.00000896;4267.43589751;4726.79487284;5088.07692489;4333.20512842;4700.51282149;4208.97435891;4203.58974352;3975.64102509
3906.79487110;2561.66666313;3747.69230665;4632.30769315;4791.92307811;2726.53845835;67.05127323;-0.00000896;4205.64102558;4368.58974387;5087.17948899;4332.43589765;4534.23076986;4208.84615378;4175.38461525;3910.12820444
3808.20512731;2658.97435564;3873.20512744;4595.25641102;4990.00000160;2923.20512543;229.99999153;-0.00000896;4075.51282017;4204.35897429;5252.05128421;4305.00000014;4863.84615517;4235.51282052;4173.20512807;3811.66666577
3709.48717838;2762.05127893;3224.35897221;4470.76923126;4762.05128317;2961.02563832;67.05127323;-0.00000896;3879.48717873;4108.84615357;5317.30769460;4333.84615406;4923.97436044;4235.12820513;4168.33333320;3713.07692197
3650.89743465;2828.20512522;3415.38461365;4433.07692350;4994.23077083;2666.15384282;229.99999153;-0.00000896;3749.10256306;4103.84615357;5550.76923355;4332.94871816;4828.33333459;4236.02564103;4168.20512807;3647.30769106
3645.76922952;2892.05127921;3808.71794782;4399.10256445;5090.25641207;2431.92307311;67.05127323;-0.00000896;3775.76922980;4072.56410222;5683.33333639;4337.05128226;4895.25641165;4236.28205129;4140.51282031;3647.30769106
3648.07692183;2889.99999715;3971.79487124;4432.69230811;5062.17948892;2435.76922695;229.99999153;-0.00000896;3747.82051178;3977.56410201;5947.17949080;4335.64102585;5025.00000167;4235.00000000;4138.71794851;3647.30769106
3677.82051164;2859.61538170;4535.51282114;4435.25641068;5160.25641221;2563.07691954;67.05127323;-0.00000896;3677.56410139;3877.94871719;5416.53846404;4333.84615406;5157.82051477;4237.17948718;4135.51282031;3680.12820395
3709.10256299;2861.02563811;4334.23076944;4436.02564145;5091.15384796;2593.33332986;229.99999153;-0.00000896;3616.79487048;3748.71794768;5356.66666903;4334.23076944;5285.12820736;4237.05128206;4109.61538434;3712.94871684
3746.28205024;2892.94871510;4532.82051345;4467.43589793;5191.79487381;2530.89743229;8237.94872643;-0.00000896;3610.51281920;3617.56410125;5482.56410521;4333.07692329;4923.07692454;4238.97435898;4106.28205101;3745.89743486
3807.17948628;2924.48717671;4895.38461678;4535.64102627;4959.61538615;2528.97435536;-0.00000896;-0.00000896;3644.35897311;3517.56410104;5157.56410451;4335.00000021;4631.15384699;4238.20512821;4105.38461511;3811.53846064
3843.71794789;2956.53845883;4041.28205087;4628.33333417;5153.97436092;2597.56409909;-0.00000896;-0.00000896;3616.53846022;3418.33333160;5120.00000188;4332.69230790;4760.00000112;4238.20512821;4077.69230735;3844.48717866
3906.53846085;2992.30768967;4663.20512911;4664.48718039;4832.43589869;2697.94871469;229.99999153;-0.00000896;3548.97435752;3316.28204934;4792.69230888;4306.92307707;4731.41025746;4267.17948725;4074.48717914;3910.12820444
3944.99999938;3057.30768981;4463.84615434;4699.74359072;5319.10256640;2790.38461233;229.99999153;-0.00000896;3388.46153666;3089.10256167;5060.89743764;4305.76923091;4698.58974457;4241.28205129;4072.94871761;3942.94871733
4011.53846106;3153.46153617;4992.43589904;4697.05128303;4956.15384769;2857.05127914;229.99999153;-0.00000896;3316.92307498;2927.69230492;4923.71795018;4306.41025655;4305.25641040;4267.17948725;4070.25640991;4008.58974311
4072.05128171;3221.02563888;5945.00000362;4666.02564193;5222.05128414;2894.99999715;229.99999153;-0.00000896;3287.82051081;2763.71794559;5054.74359148;4302.82051296;4110.12820485;4271.15384623;4071.92307658;4074.23076889
4110.38461511;3348.58974172;5844.87179828;4630.76923161;5054.61538636;2926.41025363;-0.00000896;-0.00000896;3315.51281857;2629.74358634;4173.33333320;4301.15384630;3022.30768974;4268.07692315;4043.20512779;4107.05128178
4170.64102551;3453.07692141;6142.30769634;4599.74359051;5157.43589939;2991.41025377;-0.00000896;-0.00000896;3253.84615177;2499.10256042;4368.33333362;4300.38461553;2856.66666375;4269.61538469;4043.84615343;4172.69230756
4205.51282045;3585.12820374;7060.25641624;4566.53846224;5059.48718123;3021.41025384;-0.00000896;-0.00000896;3218.84615170;2434.23076541;2627.94871455;4303.46153860;1612.82050727;4268.58974366;4041.28205087;4205.38461532
4234.35897436;3710.76922966;6830.64103113;4530.12820576;5122.30769419;2923.97435620;-0.00000896;-0.00000896;3218.84615170;2466.02563728;2795.51281746;4301.41025655;1876.53845654;4271.66666674;4038.33333292;4238.20512821
4237.82051282;3776.92307595;6995.00000584;4463.71794921;4996.28205288;2892.05127921;-0.00000896;-0.00000896;3187.82051060;2466.92307317;3119.87179251;4301.15384630;1349.23076312;4272.17948725;4039.99999959;4238.20512821
4240.76923077;3841.79487096;6892.56410820;4405.12820548;5088.71795053;2861.53845862;-0.00000896;-0.00000896;3220.12820298;2496.15384247;3942.82051220;4300.64102578;1411.28204531;4270.25641033;4041.28205087;4238.07692308
4271.02564110;3879.61538385;6043.46154229;4400.64102599;5092.82051463;2891.02563818;-0.00000896;-0.00000896;3185.38461316;2433.84615003;4306.41025655;4302.30769245;1940.38461052;4270.89743597;4039.35897395;4270.89743597
4301.28205142;3943.07692246;6011.02564478;4365.64102592;4963.58974512;2925.12820235;-0.00000896;-0.00000896;3151.92307463;2432.56409875;4371.15384644;4273.20512828;2663.07691975;4271.92307700;4038.58974318;4303.71794886
4303.71794886;4005.12820465;5912.94872150;4305.00000014;4988.97436058;2921.66666389;-0.00000896;-0.00000896;3158.46153617;2435.51281669;4534.35897499;4300.38461553;3024.48717692;4272.43589751;4038.20512779;4303.58974373
4305.25641040;4069.74358940;5352.05128442;4269.48717956;5121.92307880;2891.15384331;-0.00000896;-0.00000896;3223.07692093;2435.76922695;4076.79487145;4273.20512828;3191.66666445;4270.76923084;4038.07692266;4303.58974373
4304.61538476;4110.12820485;5089.48718130;4268.58974366;5382.94872038;2861.41025350;-0.00000896;-0.00000896;3284.23076722;2430.89743208;3973.46153791;4272.56410264;3023.84615128;4274.74358982;4038.07692266;4303.58974373
4303.46153860;4169.99999986;4829.87179613;4268.46153853;5087.69230950;2891.92307408;-0.00000896;-0.00000896;3256.79486971;2368.33332938;4202.05128199;4274.35897443;3451.15384449;4272.82051289;4038.07692266;4303.58974373
4274.74358982;4237.69230770;4469.74359023;4240.89743590;5252.17948934;2926.41025363;-0.00000896;-0.00000896;3253.46153638;2398.20512432;4108.58974332;4271.15384623;3682.05128087;4272.05128212;4037.82051241;4270.76923084
4271.66666674;4302.43589758;4597.05128282;4208.84615378;5056.79487354;2924.87179210;-0.00000896;-0.00000896;3249.61538253;2432.82050900;3909.10256341;4273.46153853;4272.43589751;4272.05128212;4037.82051241;4270.76923084
4273.07692315;4365.76923105;4568.20512890;4174.10256397;5186.79487381;2987.43589480;-0.00000896;-0.00000896;3188.46153624;2430.12820131;4073.71794837;4299.87179501;4799.61538580;4272.30769238;4011.66666618;4270.64102571
4302.05128219;4435.76923119;5060.89743764;4140.64102544;5059.74359148;2956.92307422;-0.00000896;-0.00000896;3151.41025412;2400.38461150;4209.10256404;4300.00000014;4927.56410403;4272.05128212;4037.94871754;4303.46153860
4334.61538483;4532.69230832;4465.00000049;4107.94871767;5090.64102745;2988.20512557;-0.00000896;-0.00000896;3151.92307463;2336.02563700;4142.94871774;4274.61538469;4664.23077014;4272.43589751;4037.69230728;4336.28205149
4365.12820541;4662.69230860;4661.66666757;4072.43589709;5124.23077111;3087.05127962;-0.00000896;-0.00000896;3217.30769016;2264.74358558;3842.56410173;4300.00000014;4831.15384741;4271.53846161;4039.23076882;4369.10256438
4365.38461567;4826.41025766;4401.41025676;4011.28205080;5122.94871983;3158.58974130;-0.00000896;-0.00000896;3256.92307484;2239.35897012;3911.53846085;4300.25641040;4601.92307769;4270.51282059;4037.56410215;4368.97435926
4367.43589772;5021.66666834;4403.97435933;3977.05128150;5093.97436078;3153.71794643;-0.00000896;-0.00000896;3252.94871587;2300.64102155;4103.46153819;4300.12820527;4700.25641123;4271.92307700;4041.41025600;4368.97435926
4368.84615413;5188.84615587;3190.64102342;3941.28205066;5092.05128386;2993.97435634;-0.00000896;-0.00000896;3353.71794685;2466.28204753;4498.84615441;4302.69230784;4632.94871879;4268.07692315;4043.46153805;4368.97435926
4368.58974387;5324.61538691;3551.28204983;3906.79487110;5126.15384803;2993.07692044;-0.00000896;-0.00000896;3483.97435738;2630.38461198;4660.64102655;4274.74358982;5187.17948920;4269.61538469;4044.48717907;4368.84615413
4367.17948746;5449.10256668;3220.12820298;3875.51281975;4962.05128358;3026.28204871;-0.00000896;-0.00000896;3514.74358822;2827.69230471;4598.07692385;4302.69230784;5226.41025850;4267.43589751;4071.79487145;4368.84615413
4369.10256438;5587.56410542;3417.82051109;3842.94871712;5188.84615587;2987.30768967;-0.00000896;-0.00000896;3484.99999841;3024.87179230;5487.17948982;4303.84615399;5449.48718206;4241.41025641;4071.53846119;4368.84615413
4399.74359009;5747.17949038;2991.28204865;3782.30769134;5088.46154027;2859.23076632;229.99999153;-0.00000896;3581.92307554;3223.46153631;5320.12820743;4305.51282066;5389.48718192;4240.89743590;4076.41025607;4401.53846189
4406.02564138;5847.94872136;2728.46153527;3775.51281954;4894.48718088;2859.61538170;-0.00000896;-0.00000896;3643.33333209;3451.66666500;5620.25641318;4306.15384630;5126.41025829;4240.12820513;4103.46153819;4401.53846189
4438.20512863;5944.48718310;2794.61538156;3748.58974255;5258.46154062;2791.28204823;-0.00000896;-0.00000896;3708.71794761;3709.87179376;5782.94872122;4332.69230790;4661.92307783;4238.71794872;4107.56410229;4434.35897478
4466.41025690;6007.82051658;2560.12820159;3781.02564006;5093.46154027;2696.02563776;2.94870899;-0.00000896;3809.61538372;3938.58974297;5842.43590084;4334.10256431;4890.38461678;4239.35897436;4108.46153819;4467.17948767
4469.48717998;6040.12820895;2632.05127865;3840.12820430;5055.12820687;2598.71794525;229.99999153;-0.00000896;3813.46153756;4139.48717928;5781.41025968;4334.87179508;4500.38461594;4235.51282052;4138.71794851;4467.30769280
4497.43589800;6012.56410632;3320.38461344;3879.10256334;5125.76923265;2464.35897061;229.99999153;-0.00000896;3809.10256320;4338.46153867;5324.74359204;4332.43589765;4531.28205191;4236.02564103;4143.33333313;4500.12820569
4504.10256466;5975.12820881;3187.17948496;3941.53846092;5124.61538650;2332.56409854;229.99999153;-0.00000896;3842.17948635;4533.97435960;5520.00000271;4307.17948732;4532.43589807;4236.66666667;4169.99999986;4500.25641082
4529.61538524;5878.07692656;2956.02563832;3945.51281989;5160.64102759;2298.07691898;229.99999153;-0.00000896;3976.79487124;4666.02564193;4996.79487340;4305.25641040;3812.17948628;4235.76923077;4173.71794858;4533.07692371
4498.07692364;5784.23077250;2764.74358662;3974.48717894;5187.94871997;2368.20512425;229.99999153;-0.00000896;3942.69230707;4797.30769349;4865.00000132;4332.69230790;3585.25640887;4236.53846154;4175.89743576;4500.25641082
4496.53846210;5748.58974679;3513.07692155;4004.10256362;5088.71795053;2333.20512418;229.99999153;-0.00000896;3879.35897360;4928.58974505;4368.97435926;4306.15384630;3844.61538379;4234.48717949;4204.23076917;4500.25641082
4499.61538518;5685.76923383;3612.43589612;4007.30769183;5258.20513036;2237.56409833;229.99999153;-0.00000896;3973.58974304;5054.74359148;4201.79487173;4304.61538476;4071.92307658;4208.58974352;4205.76923070;4500.25641082
4496.79487235;5613.58974651;3941.15384553;4007.56410208;4990.00000160;2266.53845737;229.99999153;-0.00000896;4042.56410215;5125.12820701;4236.28205129;4301.02564117;4635.51282135;4234.61538462;4208.71794865;4500.25641082
4469.10256459;5547.82051560;4041.66666625;4007.56410208;5192.56410458;2365.76922681;229.99999153;-0.00000896;4008.71794824;5187.05128407;4236.02564103;4302.17948732;4339.61538483;4209.10256404;4234.87179488;4467.43589793
4465.64102613;5514.61538733;3779.35897339;4006.53846106;5225.76923286;2272.69230353;229.99999153;-0.00000896;4104.87179460;5286.92307915;3913.71794803;4273.84615392;4336.53846175;4208.71794865;4237.82051282;4467.43589793
4435.38461581;5451.28205386;4306.66666681;4037.30769189;5062.30769405;2233.58973935;229.99999153;-0.00000896;4206.53846147;5350.76923314;4070.12820478;4299.87179501;4236.15384616;4209.10256404;4239.23076923;4434.61538504
4405.64102599;5389.23077167;4240.00000000;4075.38461504;5056.92307866;2270.64102148;229.99999153;-0.00000896;4169.87179474;5387.05128449;4012.17948670;4274.23076930;4497.17948774;4207.94871788;4241.66666667;4401.92307727
4403.07692343;5353.58974596;4137.30769210;4136.92307672;5155.64102759;2304.48717539;229.99999153;-0.00000896;4107.69230742;5483.33333598;3782.05128108;4271.28205136;4865.12820645;4208.97435891;4268.97435905;4401.92307727
4400.51282086;5288.58974582;4306.79487194;4168.97435884;5059.35897610;2268.84614968;229.99999153;-0.00000896;4140.25641005;5618.33333626;3680.76922959;4271.92307700;4663.71794963;4208.33333327;4270.12820520;4401.92307727
4399.87179522;5219.10256619;4070.51282017;4173.33333320;5286.02564325;2270.12820096;229.99999153;-0.00000896;4075.89743555;5746.66666987;3682.05128087;4267.82051289;4701.28205226;4209.10256404;4269.10256418;4401.92307727
4431.28205170;5127.56410444;3775.89743493;4205.64102558;5122.43589932;2171.79486742;229.99999153;-0.00000896;3976.53846099;5815.25641360;3613.84615253;4268.07692315;4534.35897499;4208.84615378;4272.43589751;4434.87179529
4437.82051324;5024.61538629;3971.53846099;4234.10256411;5287.43589966;2071.79486721;229.99999153;-0.00000896;4071.53846119;5912.43590098;3483.97435738;4238.97435898;4499.87179543;4234.35897436;4274.23076930;4434.87179529
4464.61538511;4928.46153992;4071.92307658;4238.07692308;5258.71795088;2134.35896992;229.99999153;-0.00000896;4077.43589709;5947.69231131;3781.92307595;4241.15384616;4732.82051387;4209.10256404;4300.64102578;4467.69230818
4470.00000049;4825.12820638;4496.41025697;4274.61538469;5186.41025843;2205.38461108;229.99999153;-0.00000896;3978.07692252;5973.58974728;3059.48717699;4238.20512821;5026.28205295;4235.25641026;4300.00000014;4467.69230818
4500.00000056;4729.61538566;4172.82051269;4335.51282073;5127.05128393;2205.25640595;229.99999153;-0.00000896;4004.99999952;6042.05128588;3450.51281885;4236.02564103;5025.38461706;4234.87179488;4300.38461553;4500.64102620
4497.17948774;4631.92307776;4797.94871913;4338.33333355;5061.92307866;2269.87179071;229.99999153;-0.00000896;4043.71794830;6010.51282427;3350.76922890;4237.05128206;4176.02564089;4235.64102564;4301.02564117;4500.64102620
4436.53846196;4533.97435960;4893.84615524;4336.15384637;4993.46154006;2399.35897047;229.99999153;-0.00000896;3975.38461483;5946.66667028;3089.48717706;4238.33333334;3847.94871712;4236.41025641;4301.41025655;4435.00000042
4398.97435933;4466.66666716;4865.51282184;4300.25641040;5123.20513009;2400.51281663;229.99999153;-0.00000896;3840.38461455;5947.94872157;3579.10256272;4237.43589744;4368.71794900;4236.92307693;4301.53846168;4402.05128240
4337.43589765;4398.97435933;5057.05128379;4237.69230770;5091.79487361;2363.33332938;229.99999153;-0.00000896;3777.17948621;5975.76923446;3256.66666459;4236.02564103;4662.56410347;4237.05128206;4302.30769245;4336.41025662
4332.30769252;4332.30769252;5023.71795039;4176.02564089;5028.46154013;2397.94871406;229.99999153;-0.00000896;3776.92307595;5975.89743958;3387.94871615;4233.97435898;4865.12820645;4237.30769231;4301.66666681;4336.28205149
4300.76923091;4268.20512828;4865.51282184;4142.17948697;5026.79487347;2367.94871399;229.99999153;-0.00000896;3777.17948621;5977.56410625;2990.64102300;4235.12820513;4629.61538545;4237.43589744;4301.92307707;4303.46153860
4267.82051289;4203.84615378;4794.74359093;4138.07692287;5024.61538629;2331.41025238;229.99999153;-0.00000896;3813.97435807;5973.58974728;3381.92307512;4235.00000000;4825.00000125;4238.71794872;4302.05128219;4270.64102571
4233.97435898;4139.48717928;5124.61538650;4137.82051262;5284.74359197;2364.74358579;229.99999153;-0.00000896;3874.61538385;5945.25641387;3286.79486978;4238.46153847;4338.07692329;4237.05128206;4302.94871809;4237.82051282
4202.05128199;4104.87179460;4858.20512953;4139.35897415;4897.30769370;2335.25640623;229.99999153;-0.00000896;3906.92307623;5974.35897805;3678.33333216;4236.53846154;4532.69230832;4238.33333334;4300.51282066;4204.99999993
4141.41025621;4040.25640984;4534.87179550;4141.15384595;5061.66666841;2297.69230360;229.99999153;-0.00000896;3912.05128136;6039.35897818;3944.61538399;4235.38461539;4272.69230777;4236.15384616;4302.05128219;4139.35897415
4103.58974332;3946.41025579;4994.74359135;4139.61538441;4860.51282184;2199.35897005;229.99999153;-0.00000896;3940.12820451;6144.23077326;3840.12820430;4235.00000000;4371.53846182;4234.87179488;4274.61538469;4106.53846126
4043.20512779;3814.99999910;4332.94871816;4110.12820485;5224.10256619;1973.33332854;229.99999153;-0.00000896;3943.97435835;6302.17949156;3878.33333257;4239.74358975;4568.58974429;4236.28205129;4301.41025655;4040.89743548
4006.66666618;3616.28204997;4103.84615357;4077.82051248;5029.61538629;1810.51281537;229.99999153;-0.00000896;3938.84615322;6373.84615837;3844.35897353;4237.43589744;4366.53846182;4234.35897436;4300.64102578;4008.07692259
3978.33333278;3385.25640845;4070.89743555;4044.87179446;5383.33333577;1810.89743076;-0.00000896;-0.00000896;3876.53846078;6374.87179939;3939.87179425;4241.15384616;4470.76923126;4236.28205129;4299.61538476;3975.12820458
4005.89743541;3154.61538233;3813.84615295;4043.46153805;5187.17948920;1808.20512307;-0.00000896;-0.00000896;3907.82051213;6338.33333778;4006.92307644;4266.79487187;4632.43589827;4208.71794865;4273.84615392;4007.94871747
4039.87179446;2927.43589466;3906.92307623;4073.20512786;5290.38461761;1842.56409750;229.99999153;-0.00000896;3977.69230714;6208.71795289;4107.82051255;4269.23076930;4537.30769294;4208.46153840;4272.43589751;4040.89743548
4070.76923043;2757.30768918;3911.15384546;4135.38461518;5255.51282267;1906.53845661;-0.00000896;-0.00000896;4040.76923036;6075.38461928;4140.89743569;4269.87179495;4471.66666716;4208.33333327;4269.35897443;4073.71794837
4075.89743555;2565.89743236;3940.38461476;4173.97435884;5221.02564311;2006.92307220;-0.00000896;-0.00000896;4105.51282024;5909.74359329;4173.07692294;4272.43589751;4468.84615434;4235.25641026;4267.82051289;4073.71794837
4077.56410222;2432.69230387;3649.48717824;4234.74358975;4799.23077042;2203.71794441;-0.00000896;-0.00000896;4168.71794858;5686.02564409;4434.48717991;4273.71794879;4534.35897499;4207.43589737;4241.15384616;4073.84615350
4071.66666632;2363.33332938;4201.79487173;4301.15384630;5057.05128379;2403.84614996;-0.00000896;-0.00000896;4168.46153833;5448.46154104;4600.12820590;4301.15384630;4699.87179585;4208.84615378;4239.61538462;4073.84615350
4070.12820478;2332.17948315;3875.76923001;4337.43589765;4858.07692440;2530.38461178;-0.00000896;-0.00000896;4141.15384595;5123.97436085;4826.66666792;4300.51282066;4568.07692378;4234.87179488;4208.84615378;4073.97435863
4041.66666625;2333.33332931;4006.53846106;4404.74359009;5026.41025808;2661.79486846;-0.00000896;-0.00000896;4170.38461525;4858.97436030;4662.43589834;4303.33333348;4369.87179515;4235.38461539;4206.41025634;4041.15384574
4011.02564054;2400.12820124;3944.74358912;4471.28205177;4732.17948823;2794.61538156;-0.00000896;-0.00000896;4109.23076896;4628.58974443;4896.02564242;4305.00000014;4400.76923112;4235.25641026;4202.94871788;4008.46153798
4004.87179439;2498.97435530;3973.46153791;4531.02564165;4925.00000146;2792.94871490;-0.00000896;-0.00000896;4008.07692259;4437.94871837;4963.33333487;4303.58974373;4273.97435905;4234.87179488;4203.46153840;4008.46153798
3975.89743535;2594.10256063;4042.69230728;4501.41025697;5120.38461726;2762.43589431;-0.00000896;-0.00000896;3910.51281982;4335.76923098;4958.46153999;4307.17948732;4534.61538524;4235.76923077;4172.69230756;3975.64102509
3975.64102509;2659.74358641;3548.33333188;4498.84615441;5123.84615573;2726.15384296;-0.00000896;-0.00000896;3846.15384532;4207.30769224;5222.69230978;4332.30769252;4204.61538455;4236.28205129;4171.02564089;3975.64102509
3972.94871740;2696.02563776;3481.53845994;4471.28205177;4860.89743722;2630.25640686;-0.00000896;-0.00000896;3873.46153770;4137.05128185;5256.92307908;4333.33333355;4465.00000049;4237.05128206;4142.17948697;3975.64102509
3971.79487124;2727.69230450;3780.12820416;4470.89743639;5090.64102745;2630.64102224;-0.00000896;-0.00000896;3814.99999910;4010.51282003;5191.53846356;4335.51282073;4237.43589744;4237.56410257;4138.97435877;3975.64102509
3946.53846092;2760.25640713;3545.38461393;4496.41025697;5055.89743764;2628.58974019;-0.00000896;-0.00000896;3745.25640922;3874.99999924;6009.48718324;4332.43589765;4797.94871913;4239.74358975;4137.05128185;3942.82051220
3973.07692252;2759.48717636;4037.43589702;4468.33333382;5057.43589918;2499.10256042;-0.00000896;-0.00000896;3747.43589640;3778.33333236;5423.33333584;4336.28205149;4930.25641172;4239.10256411;4108.71794844;3975.64102509
3972.05128150;2728.20512501;4432.82051324;4467.69230818;5153.07692503;2599.74358627;-0.00000896;-0.00000896;3776.28205031;3709.10256299;5780.51282378;4333.46153867;4991.53846314;4240.64102564;4106.92307665;3975.64102509
3973.20512765;2726.79486860;4077.69230735;4467.69230818;4961.41025794;2696.79486853;-0.00000896;-0.00000896;3713.46153735;3643.07692183;5387.56410500;4305.64102578;5061.41025815;4239.74358975;4103.58974332;3975.64102509
3977.69230714;2727.82050963;4536.15384678;4467.56410305;5091.02564284;2759.74358662;-0.00000896;-0.00000896;3677.17948600;3546.53846008;5811.02564436;4307.05128219;5746.28205448;4241.53846154;4076.41025607;3975.64102509
4037.82051241;2731.15384296;4633.71794956;4469.35897485;5055.64102738;2894.35897151;-0.00000896;-0.00000896;3578.97435759;3413.58974186;5745.51282371;4307.17948732;5813.07692642;4240.38461539;4073.58974325;4041.28205087
4106.28205101;2796.41025336;4631.92307776;4497.56410312;5125.00000188;2955.51281781;-0.00000896;-0.00000896;3548.07692162;3156.53845925;5488.07692572;4302.94871809;5483.58974623;4239.23076923;4071.79487145;4106.92307665
4176.15384602;2921.41025363;5616.92307985;4467.43589793;5126.53846342;3023.97435641;-0.00000896;-0.00000896;3611.28204997;2961.02563832;5385.76923321;4304.35897450;5876.53846502;4241.66666667;4044.61538420;4172.56410243
4241.28205129;3026.15384359;5580.12820798;4437.43589786;4962.94871948;3058.33333084;-0.00000896;-0.00000896;3648.33333209;2697.94871469;4600.76923154;4302.05128219;4529.48718012;4241.28205129;4041.92307651;4238.07692308
4270.89743597;3186.53845932;5153.97436092;4432.82051324;5026.53846321;3020.25640769;-0.00000896;-0.00000896;3780.25640929;2531.66666306;4373.07692336;4301.53846168;3975.25640970;4267.82051289;4041.28205087;4270.89743597
4240.12820513;3315.89743396;4924.10256557;4465.25641075;5124.74359162;3024.23076666;-0.00000896;-0.00000896;3842.05128122;2403.58973970;4468.71794921;4274.35897443;3318.71794678;4267.17948725;4040.25640984;4238.20512821
4234.61538462;3447.30769064;5848.71795213;4496.41025697;5287.56410479;3121.92307456;-0.00000896;-0.00000896;3683.84615267;2330.38461136;4175.38461525;4274.10256418;2727.43589424;4267.56410264;4038.58974318;4238.20512821
4204.10256404;3550.38461393;7129.87180099;4471.66666716;5027.30769398;2988.97435634;-0.00000896;-0.00000896;3681.02563985;2269.99999583;3319.10256216;4271.41025648;2070.76922619;4268.58974366;4039.23076882;4205.38461532
4169.61538448;3617.56410125;7057.17949316;4500.25641082;5026.53846321;2955.12820242;229.99999153;-0.00000896;3615.38461407;2169.35896999;2666.53845821;4272.56410264;1379.10255806;4270.12820520;4012.17948670;4172.56410243
4138.84615364;3678.97435780;7226.79487812;4500.25641082;4863.97436030;3059.74358725;229.99999153;-0.00000896;3451.41025475;2137.30768786;3875.89743514;4270.51282059;1876.92307192;4268.58974366;4011.02564054;4139.74358954
4135.51282031;3776.15384518;7291.02564749;4496.79487235;4895.25641165;3156.02563874;229.99999153;-0.00000896;3282.30769030;2134.74358530;3681.92307575;4273.58974366;2073.84614926;4269.61538469;4037.43589702;4139.74358954
4142.17948697;3907.56410187;6796.53846696;4398.20512856;5089.48718130;3089.87179244;229.99999153;-0.00000896;3251.41025433;2172.43589306;3388.20512640;4272.30769238;2101.28204677;4270.51282059;4010.12820465;4139.61538441
4141.92307672;3945.12820451;6010.38461914;4336.41025662;4989.35897596;2991.92307429;-0.00000896;-0.00000896;3350.76922890;2202.05127775;4666.66666757;4269.10256418;2855.64102273;4272.56410264;4010.12820465;4139.61538441
4138.84615364;4010.25640977;5415.51282302;4302.17948732;5024.74359142;2988.71794608;-0.00000896;-0.00000896;3354.35897249;2206.66666236;3551.41025495;4272.30769238;3249.99999792;4270.12820520;4009.48717900;4139.48717928
4109.23076896;4073.46153812;4825.38461664;4267.69230777;5059.74359148;2994.61538198;229.99999153;-0.00000896;3254.87179279;2205.12820082;3847.17948635;4271.92307700;3483.58974200;4271.02564110;4007.05128157;4106.66666639
4138.20512800;4109.48717921;5087.30769412;4204.48717942;4962.30769384;2992.69230506;-0.00000896;-0.00000896;3191.15384393;2201.92307262;3977.69230714;4269.48717956;3807.94871705;4270.76923084;4009.61538413;4139.48717928
4142.30769210;4172.30769217;4536.53846217;4142.94871774;5095.00000181;3025.64102307;229.99999153;-0.00000896;3190.64102342;2166.41025204;4204.74358968;4267.94871802;3780.12820416;4271.79487187;4008.71794824;4139.35897415
4173.46153833;4241.66666667;5385.51282295;4107.43589716;5062.43589918;3087.43589501;-0.00000896;-0.00000896;3222.94871580;2069.10255952;3251.02563894;4268.33333341;4500.51282107;4271.53846161;4009.35897388;4172.17948704
4204.23076917;4365.64102592;4569.23076993;4072.94871761;5028.07692475;3123.33333097;229.99999153;-0.00000896;3283.07692107;2008.07691836;3742.94871691;4270.12820520;4365.12820541;4271.15384623;4009.35897388;4204.99999993
4203.84615378;4467.69230818;5120.38461726;4042.69230728;4927.05128351;3190.89743368;-0.00000896;-0.00000896;3386.41025461;1942.30768745;3320.89743396;4271.92307700;4629.87179571;4271.53846161;4010.12820465;4204.87179481
4205.38461532;4628.58974443;4398.33333368;4037.69230728;5121.79487367;3320.64102370;229.99999153;-0.00000896;3387.69230589;1910.12820020;3513.58974206;4270.76923084;5158.58974554;4270.51282059;4011.15384567;4204.87179481
4207.30769224;4729.35897541;4503.07692364;4009.23076875;5061.66666841;3316.79486985;-0.00000896;-0.00000896;3384.23076743;1937.94871309;3843.20512738;4272.43589751;4857.69230902;4268.71794879;4011.28205080;4204.87179481
4237.69230770;4895.38461678;4366.53846182;3978.33333278;5155.76923272;3220.64102349;229.99999153;-0.00000896;3384.23076743;2035.12820048;3650.64102439;4271.28205136;5088.46154027;4270.64102571;4037.43589702;4237.69230770
4267.56410264;5056.79487354;4236.41025641;3971.92307637;4858.58974491;3187.56410034;-0.00000896;-0.00000896;3481.15384456;2104.35896985;3978.20512765;4301.41025655;4471.53846203;4267.17948725;4038.07692266;4270.51282059
4271.28205136;5219.23077132;3748.20512717;3944.74358912;5122.69230957;3124.99999764;229.99999153;-0.00000896;3547.56410111;2271.53845737;4995.38461699;4273.97435905;4635.00000084;4269.35897443;4039.87179446;4270.51282059
4300.12820527;5356.02564339;3843.07692225;3971.28205073;4928.33333480;3118.97435662;-0.00000896;-0.00000896;3451.79487013;2433.58973977;5254.23077139;4301.15384630;4174.61538448;4267.56410264;4040.64102523;4303.33333348
4306.02564117;5519.10256682;3942.17948656;3942.43589681;5092.69230950;3059.99999750;229.99999153;-0.00000896;3486.79487020;2661.15384282;5683.20513127;4303.07692322;3811.92307602;4241.53846154;4043.58974318;4303.33333348
4336.02564124;5681.15384922;3714.87179376;3913.58974290;4989.48718109;3090.64102321;-0.00000896;-0.00000896;3551.41025495;2858.33333042;6008.58974735;4306.92307707;4202.17948711;4240.76923077;4070.76923043;4336.02564124
4340.12820534;5844.87179828;3681.92307575;3908.97435828;4993.07692468;3157.69230540;229.99999153;-0.00000896;3482.56410097;3052.94871545;6144.10256814;4306.79487194;4137.05128185;4240.25641026;4073.20512786;4336.02564124
4372.17948746;5979.61538830;2953.97435627;3876.66666591;5025.76923244;2958.97435627;-0.00000896;-0.00000896;3551.79487034;3287.69230568;6138.07692711;4306.66666681;4240.25641026;4240.12820513;4102.69230742;4368.84615413
4372.94871823;6045.51282434;2561.53845800;3876.53846078;5027.94871962;2824.87179189;229.99999153;-0.00000896;3782.17948621;3517.43589591;6174.74359385;4333.71794893;4142.82051262;4241.02564103;4105.12820485;4368.84615413
4368.33333362;6110.12820909;1446.28204538;3877.69230693;5057.56410431;2923.46153569;-0.00000896;-0.00000896;3777.17948621;3677.56410139;6308.46154284;4307.43589758;4303.46153860;4238.58974359;4108.84615357;4368.84615413
4365.51282079;6170.89744000;2826.53845855;3877.30769155;5027.43589911;2896.02563818;229.99999153;-0.00000896;3845.38461455;3873.46153770;6040.76923459;4333.58974380;4044.61538420;4239.23076923;4109.74358947;4368.84615413
4339.23076944;6210.89744007;1910.64102071;3878.58974283;5224.10256619;2792.94871490;-0.00000896;-0.00000896;3939.87179425;4110.12820485;6040.00000383;4333.33333355;4536.66666730;4238.97435898;4141.15384595;4336.02564124
4338.84615406;6269.87179918;3120.12820277;3938.97435835;4992.56410417;2594.87179140;229.99999153;-0.00000896;3971.92307637;4372.82051310;5680.89743896;4307.56410271;4273.07692315;4234.10256411;4142.82051262;4336.15384637
4365.38461567;6239.10256835;2298.20512411;3979.23076868;5026.79487347;2468.97435523;-0.00000896;-0.00000896;3978.33333278;4628.84615468;5453.20513078;4307.43589758;4007.17948670;4237.05128206;4173.46153833;4368.97435926
4366.02564131;6172.17949128;2795.12820207;4071.15384581;4963.97436051;2366.02563707;229.99999153;-0.00000896;4012.05128157;4829.23077049;5252.05128421;4304.87179501;3878.97435821;4234.48717949;4175.89743576;4369.10256438
4339.23076944;6045.38461921;2560.64102210;4137.69230749;5187.82051484;2367.69230374;-0.00000896;-0.00000896;4103.84615357;5027.05128372;5121.66666855;4304.10256425;3812.30769141;4234.87179488;4204.87179481;4336.28205149
4333.20512842;5946.66667028;2463.20512446;4206.66666660;5254.87179703;2562.82050928;229.99999153;-0.00000896;4039.35897395;5127.82051470;4697.69230867;4303.07692322;3810.38461449;4202.94871788;4234.35897436;4336.41025662
4302.82051296;5879.74359322;2895.89743305;4236.02564103;5190.12820715;2625.76922737;-0.00000896;-0.00000896;4004.48717900;5290.64102787;4239.35897436;4301.92307707;4302.30769245;4234.61538462;4235.25641026;4303.58974373
4300.00000014;5815.51282385;3514.35897283;4202.69230763;5252.82051498;2594.35897089;229.99999153;-0.00000896;4007.69230721;5389.23077167;3845.25640943;4274.23076930;4302.30769245;4208.71794865;4238.84615385;4303.58974373
4271.41025648;5747.05128525;3447.30769064;4169.87179474;5153.84615580;2500.38461171;-0.00000896;-0.00000896;4072.82051248;5554.10256689;3283.07692107;4272.05128212;3976.66666611;4235.12820513;4240.12820513;4270.64102571
4269.35897443;5646.41025940;3873.46153770;4138.58974339;5093.58974540;2337.82050879;135.38460670;-0.00000896;4137.69230749;5649.35897735;3517.43589591;4271.28205136;4140.64102544;4234.87179488;4269.10256418;4270.64102571
4270.12820520;5515.89743861;3842.94871712;4138.46153826;5256.79487395;2235.25640602;-0.00000896;-0.00000896;4169.61538448;5779.23077250;3808.84615295;4272.43589751;4404.35897471;4233.97435898;4269.74358982;4270.64102571
4271.15384623;5415.51282302;4141.53846133;4142.94871774;5220.89743799;2136.28204684;229.99999153;-0.00000896;4136.92307672;5977.17949087;4110.25640998;4269.87179495;4272.43589751;4209.10256404;4271.53846161;4270.64102571
4303.84615399;5255.12820729;4268.97435905;4207.69230763;5225.89743799;2037.05127740;229.99999153;-0.00000896;4041.66666625;6203.97436315;4105.38461511;4240.38461539;4305.64102578;4235.64102564;4273.20512828;4303.58974373
4339.48717970;5088.33333514;4109.23076896;4273.20512828;5254.10256626;1909.35896943;229.99999153;-0.00000896;3971.92307637;6338.58974804;3911.15384546;4241.79487180;4170.51282038;4206.66666660;4273.84615392;4336.41025662
4402.56410292;4864.87179620;4400.64102599;4272.94871802;5225.00000209;1938.20512334;229.99999153;-0.00000896;3910.64102495;6368.46154298;3321.92307498;4240.00000000;4825.64102690;4235.00000000;4273.58974366;4402.05128240
4466.41025690;4665.76923168;4172.56410243;4268.58974366;5222.56410465;2004.10255938;-0.00000896;-0.00000896;3880.38461462;6338.33333778;3089.35897193;4238.58974359;4403.20512856;4236.02564103;4300.12820527;4467.69230818
4502.17948774;4502.82051338;4306.41025655;4302.30769245;5160.76923272;2005.25640554;-0.00000896;-0.00000896;3879.10256334;6302.43590182;3387.17948538;4239.74358975;4468.33333382;4236.92307693;4300.12820527;4500.51282107
4496.53846210;4368.33333362;4106.53846126;4332.43589765;5253.97436113;2008.07691836;-0.00000896;-0.00000896;3946.53846092;6270.64102995;3645.12820388;4236.92307693;4368.71794900;4235.89743590;4300.64102578;4500.64102620
4403.20512856;4236.41025641;4371.92307720;4300.25641040;5189.87179689;2204.10255980;-0.00000896;-0.00000896;3877.05128129;6142.82051685;3415.76922904;4236.79487180;4366.02564131;4236.28205129;4300.25641040;4402.05128240
4333.58974380;4137.05128185;4269.61538469;4207.05128199;5221.41025850;2297.82050872;-0.00000896;-0.00000896;3774.74358877;6012.05128581;3125.64102328;4239.35897436;4372.56410285;4238.84615385;4300.38461553;4336.41025662
4239.61538462;4039.99999959;4597.94871872;4136.02564082;5055.51282225;2272.17948301;-0.00000896;-0.00000896;3812.94871705;5948.20513182;3420.25640852;4237.56410257;5186.53846356;4236.53846154;4300.64102578;4237.82051282
4173.58974345;3974.74358919;5025.64102731;4104.74358947;5124.10256598;2235.64102141;-0.00000896;-0.00000896;3778.07692211;5881.41025989;2895.51281767;4236.53846154;5678.20513127;4238.07692308;4300.25641040;4172.17948704
4141.15384595;3940.89743528;6401.28205587;4105.12820485;4898.33333473;2200.64102134;-0.00000896;-0.00000896;3716.41025530;5881.66667014;2237.94871371;4235.89743590;5647.94872094;4235.12820513;4299.48717963;4139.35897415
4110.38461511;3876.15384539;6535.76923564;4103.97435870;4990.51282211;2068.33332875;-0.00000896;-0.00000896;3778.84615288;5974.61538830;1970.12820034;4236.41025641;6303.97436336;4236.41025641;4299.61538476;4106.53846126
4105.76923050;3746.28205024;7421.41026315;4102.82051255;4924.10256557;1843.97435391;-0.00000896;-0.00000896;3811.41025551;6105.38461935;887.43589035;4241.92307693;6467.94872268;4237.43589744;4274.61538469;4106.53846126
4102.82051255;3546.28204983;5188.84615587;4074.74358940;4958.46153999;1710.64102029;-0.00000896;-0.00000896;3809.61538372;6176.92308103;2794.35897131;4240.76923077;4567.94871865;4234.87179488;4273.58974366;4106.53846126
4103.58974332;3287.69230568;5316.92307922;4070.64102530;5158.84615580;1744.99999472;-0.00000896;-0.00000896;3842.43589661;6209.87179904;2593.33332986;4269.23076930;4597.56410333;4235.25641026;4272.30769238;4106.53846126
4108.07692280;3055.64102314;4171.79487166;4044.61538420;5155.12820708;1746.66666139;-0.00000896;-0.00000896;3913.46153777;6143.71795275;3617.69230638;4267.05128212;4927.82051428;4235.64102564;4273.46153853;4106.41025614
4138.20512800;2855.38461247;4169.48717935;4041.02564061;5153.33333528;1972.56409777;-0.00000896;-0.00000896;4010.64102516;6072.43590133;4042.94871754;4270.76923084;4826.53846279;4236.28205129;4268.20512828;4139.23076903
4172.82051269;2695.38461212;3873.97435821;4042.05128164;5160.51282246;2042.69230304;-0.00000896;-0.00000896;4044.99999959;5908.97436252;4372.94871823;4272.82051289;4992.30769391;4208.33333327;4239.74358975;4172.05128192
4201.92307686;2529.74358613;3939.35897374;4069.74358940;5060.64102738;2005.64102092;-0.00000896;-0.00000896;4208.33333327;5809.48718283;4497.94871851;4274.48717956;4668.07692398;4208.46153840;4239.35897436;4204.99999993
