Gyro-X;Gyro-Z;AF3;Gyro-Y;T7;Acc-X;Pz;QualityData_1;QualityData_2;Acc-Z;Acc-Y;T8;Mag-X;AF4;Mag-Z;Mag-Y;Mag-X;Gyro-X 
4566.28205198;4238.07692308;4663.33333424;4337.94871816;5058.97436072;1842.69230262;-0.00000896;-0.00000896;4272.43589751;4665.51282142;4923.84615531;4334.87179508;4304.35897450;4270.64102571;4176.02564089;4566.28205198
4536.02564165;4234.48717949;4731.28205233;4336.79487201;5088.97436078;1838.33332826;-0.00000896;-0.00000896;4238.20512821;4634.48718032;5092.94871976;4306.53846168;4530.51282114;4271.02564110;4201.66666660;4533.46153909
4504.10256466;4206.15384609;4238.71794872;4302.30769245;5058.20512995;1876.28204628;-0.00000896;-0.00000896;4235.00000000;4632.82051366;5455.64102822;4332.30769252;4567.56410326;4270.89743597;4175.89743576;4500.51282107
4470.64102613;4205.12820506;4042.17948677;4269.48717956;4760.38461650;1876.92307192;-0.00000896;-0.00000896;4206.79487173;4602.69230846;4762.30769342;4307.17948732;4825.64102690;4271.79487187;4175.89743576;4467.69230818
4438.84615427;4203.84615378;4204.87179481;4235.89743590;4960.00000153;1876.92307192;-0.00000896;-0.00000896;4208.46153840;4630.64102648;4796.66666785;4306.66666681;4633.97435981;4270.64102571;4175.38461525;4434.87179529
4432.82051324;4201.79487173;4236.79487180;4204.48717942;5023.71795039;1904.61537969;229.99999153;-0.00000896;4236.15384616;4630.38461622;4989.87179647;4332.30769252;4368.84615413;4271.15384623;4175.12820499;4434.87179529
4399.61538497;4172.69230756;4201.53846147;4202.30769224;5059.61538636;1910.38461045;-0.00000896;-0.00000896;4237.43589744;4634.74359058;4928.97436044;4307.56410271;4566.15384685;4272.17948725;4175.64102551;4402.05128240
4368.20512849;4168.46153833;4173.46153833;4202.30769224;4996.53846314;1903.97435404;164.35896575;-0.00000896;4267.17948725;4660.64102655;4564.61538531;4305.76923091;4629.87179571;4271.66666674;4174.74358961;4369.23076951
4334.74358996;4138.58974339;4201.92307686;4206.02564096;4927.30769377;1906.15384122;-0.00000896;-0.00000896;4239.35897436;4633.97435981;4892.30769370;4332.30769252;4273.84615392;4269.74358982;4174.87179474;4336.41025662
4301.02564117;4104.61538434;3843.84615302;4239.10256411;4926.79487326;1906.15384122;229.99999153;-0.00000896;4237.17948718;4632.56410340;4535.12820576;4333.07692329;4366.02564131;4272.82051289;4173.33333320;4303.58974373
4267.69230777;4071.79487145;4077.69230735;4273.07692315;5054.35897610;1936.92307206;229.99999153;-0.00000896;4206.79487173;4599.35897513;4731.28205233;4307.43589758;4435.51282093;4272.17948725;4174.35897422;4270.76923084
4208.71794865;4039.74358933;3911.92307623;4305.38461553;5187.17948920;1937.69230283;229.99999153;-0.00000896;4175.38461525;4564.35897506;4994.10256570;4305.00000014;4730.64102669;4271.02564110;4173.97435884;4205.12820506
4173.33333320;4008.20512772;4043.20512779;4335.12820534;5056.02564277;1910.38461045;229.99999153;-0.00000896;4169.74358961;4533.20512883;5029.48718116;4305.64102578;4402.69230804;4273.58974366;4174.48717935;4172.43589730
4138.97435877;3975.25640970;4104.61538434;4337.17948739;4991.28205288;1911.15384122;229.99999153;-0.00000896;4141.28205108;4499.74359030;4955.89743743;4332.69230790;4470.76923126;4272.05128212;4172.82051269;4139.61538441
4077.30769196;3942.43589681;4269.35897443;4337.94871816;4923.97436044;1942.82050796;229.99999153;-0.00000896;4108.33333306;4469.48717998;4663.07692398;4334.61538483;4762.43589855;4272.94871802;4174.87179474;4073.97435863
4040.51282010;3938.58974297;4305.51282066;4338.97435919;4924.74359121;1974.87179008;229.99999153;-0.00000896;4103.46153819;4435.25641068;4831.66666792;4307.56410271;4926.66666813;4274.35897443;4172.94871781;4041.15384574
4004.87179439;3911.41025572;4332.43589765;4336.79487201;4961.79487333;2006.53845682;229.99999153;-0.00000896;4044.61538420;4405.89743625;4467.05128254;4307.43589758;4731.28205233;4271.15384623;4171.92307679;4008.33333285
3972.82051227;3911.28205059;4400.25641061;4335.00000021;4993.84615545;2004.35896964;229.99999153;-0.00000896;4009.35897388;4371.15384644;4401.66666702;4333.84615406;4892.69230909;4272.69230777;4172.17948704;3975.51281996
3940.64102502;3912.05128136;4042.82051241;4332.43589765;5056.53846328;2003.46153374;229.99999153;-0.00000896;3979.35897381;4367.56410285;4141.79487159;4306.41025655;4861.92307825;4300.25641040;4171.53846140;3942.69230707
3909.87179418;3938.58974297;4271.02564110;4301.41025655;4862.94871927;2009.87179015;229.99999153;-0.00000896;3972.17948663;4335.38461560;4466.92307741;4307.05128219;4862.94871927;4273.71794879;4171.66666653;3909.74358905
3905.64102495;3941.79487117;4273.33333341;4272.56410264;4860.12820645;2041.53845689;229.99999153;-0.00000896;3941.02564040;4306.41025655;4302.69230784;4305.51282066;4533.20512883;4273.33333341;4170.89743576;3909.74358905
3879.99999924;3945.25640963;4271.28205136;4268.46153853;4860.64102697;2102.30768779;229.99999153;-0.00000896;3911.79487110;4300.64102578;4500.64102620;4333.20512842;4464.87179536;4274.23076930;4171.15384602;3876.92307616
3906.15384546;3976.66666611;4168.46153833;4268.07692315;5089.23077104;2167.82050845;229.99999153;-0.00000896;3906.02564033;4273.71794879;4204.61538455;4305.64102578;4433.97435940;4273.97435905;4170.38461525;3909.74358905
3911.02564033;4009.35897388;4170.51282038;4269.10256418;5029.35897603;2171.15384178;229.99999153;-0.00000896;3847.05128122;4271.02564110;4499.35897492;4303.46153860;4171.02564089;4273.33333341;4169.61538448;3909.74358905
3940.89743528;4040.76923036;4370.51282079;4270.76923084;4958.84615538;2170.76922640;229.99999153;-0.00000896;3844.10256327;4274.35897443;4338.84615406;4334.61538483;4138.58974339;4272.82051289;4170.38461525;3942.56410194
3972.05128150;4072.30769196;4236.53846154;4273.84615392;4991.92307853;2169.23076486;229.99999153;-0.00000896;3842.56410173;4273.84615392;4728.97436002;4332.30769252;3781.53846057;4272.82051289;4169.74358961;3975.38461483
4005.64102516;4104.99999973;4340.00000021;4299.74358989;4930.12820659;2167.30768793;229.99999153;-0.00000896;3812.69230679;4271.79487187;4530.76923140;4332.69230790;4102.94871767;4272.30769238;4169.99999986;4008.20512772
4038.97435856;4137.82051262;4140.38461518;4299.87179501;4990.64102724;2140.89743145;229.99999153;-0.00000896;3813.33333243;4301.15384630;5022.69230936;4306.28205142;3713.07692197;4273.71794879;4168.33333320;4041.02564061
4044.23076882;4143.07692287;4301.15384630;4272.56410264;4891.41025780;2140.51281607;229.99999153;-0.00000896;3815.25640936;4304.10256425;4467.94871844;4306.41025655;4338.33333355;4272.94871802;4170.25641012;4041.02564061
4077.17948684;4201.41025634;4207.43589737;4270.38461546;4958.71795025;2135.25640581;229.99999153;-0.00000896;3843.33333250;4336.02564124;4760.38461650;4332.43589765;4170.51282038;4272.69230777;4171.02564089;4073.84615350
4109.48717921;4235.38461539;4168.33333320;4267.17948725;4923.58974505;2101.02563651;229.99999153;-0.00000896;3845.76922994;4336.66666688;4465.25641075;4332.69230790;4304.35897450;4273.07692315;4170.76923063;4106.66666639
4168.58974345;4241.15384616;4205.38461532;4266.79487187;4927.43589890;2038.20512355;229.99999153;-0.00000896;3875.12820437;4372.82051310;4925.25641172;4306.79487194;3874.35897360;4300.00000014;4170.38461525;4172.30769217
4176.02564089;4271.53846161;3943.71794810;4268.20512828;4995.25641186;1975.38461059;229.99999153;-0.00000896;3877.17948642;4372.82051310;4437.69230811;4307.17948732;4369.48717977;4273.46153853;4170.64102551;4172.30769217
4234.23076923;4272.30769238;4006.28205080;4269.23076930;4894.48718088;1909.74358481;229.99999153;-0.00000896;3907.69230700;4398.71794907;4697.43589841;4332.82051303;4239.87179488;4273.97435905;4170.76923063;4237.94871795
4267.69230777;4269.61538469;4170.12820499;4271.79487187;5025.00000167;1876.92307192;229.99999153;-0.00000896;3912.30769162;4402.17948753;5091.15384796;4307.05128219;4174.87179474;4274.10256418;4172.17948704;4270.76923084
4300.12820527;4241.02564103;3846.92307609;4271.28205136;5120.25641214;1877.56409756;229.99999153;-0.00000896;3941.66666605;4402.56410292;4863.84615517;4306.92307707;4464.10256459;4273.46153853;4170.76923063;4303.58974373
4306.28205142;4236.28205129;4369.48717977;4272.43589751;4956.41025794;1878.58973859;229.99999153;-0.00000896;3943.58974297;4400.76923112;4733.84615489;4305.76923091;4332.30769252;4273.71794879;4171.15384602;4303.58974373
4335.25641047;4208.97435891;4109.99999973;4271.92307700;5088.46154027;1878.58973859;229.99999153;-0.00000896;3972.17948663;4367.82051310;4530.25641089;4333.46153867;4336.66666688;4299.48717963;4171.02564089;4336.41025662
4340.00000021;4204.99999993;4143.33333313;4274.23076930;4924.10256557;1874.23076423;229.99999153;-0.00000896;3973.07692252;4334.74358996;4862.05128338;4305.38461553;4301.41025655;4274.61538469;4170.76923063;4336.41025662
4365.64102592;4201.02564096;4403.33333368;4301.02564117;5093.97436078;1876.02563603;229.99999153;-0.00000896;3974.23076868;4333.46153867;4732.94871899;4306.15384630;4304.10256425;4300.00000014;4170.51282038;4369.23076951
4365.76923105;4173.84615371;4432.82051324;4302.69230784;5022.94871962;1907.82050789;229.99999153;-0.00000896;3974.10256355;4301.66666681;4896.15384755;4306.79487194;4109.10256383;4274.10256418;4170.25641012;4369.23076951
4338.97435919;4171.53846140;4465.64102613;4302.30769245;4927.56410403;1943.20512334;229.99999153;-0.00000896;3975.25640970;4271.79487187;4961.28205281;4333.58974380;4143.33333313;4274.48717956;4170.25641012;4336.41025662
4337.05128226;4171.02564089;4567.17948788;4299.61538476;4993.07692468;2007.82050810;37.94870906;-0.00000896;3944.23076861;4267.05128212;4864.61538594;4333.20512842;3813.46153756;4274.61538469;4170.51282038;4336.41025662
4334.48717970;4174.10256397;4730.38461643;4272.17948725;4925.64102710;2071.28204670;1.02563207;-0.00000896;3942.94871733;4266.79487187;4627.82051366;4332.30769252;4267.17948725;4300.12820527;4169.99999986;4336.41025662
4332.94871816;4204.48717942;4530.76923140;4269.48717956;4830.64102690;2042.56409791;229.99999153;-0.00000896;3938.71794810;4241.92307693;4793.07692426;4307.56410271;4237.05128206;4301.66666681;4170.25641012;4336.41025662
4307.17948732;4208.33333327;4530.25641089;4268.46153853;5089.10256591;2009.87179015;1.02563207;-0.00000896;3938.46153784;4270.89743597;5152.82051477;4306.66666681;4042.94871754;4273.58974366;4170.64102551;4303.58974373
4306.92307707;4236.79487180;4599.74359051;4241.53846154;4989.35897596;2004.61537989;-0.00000896;-0.00000896;3940.12820451;4333.33333355;5022.30769398;4307.43589758;3872.82051206;4301.28205142;4169.61538448;4303.58974373
4304.74358989;4236.28205129;4436.79487222;4267.69230777;5056.28205302;2003.71794400;-0.00000896;-0.00000896;3938.84615322;4305.89743604;4762.94871906;4304.10256425;3972.82051227;4273.46153853;4169.99999986;4303.58974373
4304.10256425;4237.30769231;4437.94871837;4268.07692315;4863.20512953;1975.51281572;-0.00000896;-0.00000896;3941.41025579;4332.43589765;4927.94871941;4306.28205142;4105.64102537;4300.51282066;4169.74358961;4303.58974373
4303.46153860;4236.28205129;4141.92307672;4270.25641033;5126.41025829;1971.41025162;-0.00000896;-0.00000896;3939.87179425;4334.10256431;4431.92307734;4307.30769245;4209.10256404;4300.89743604;4171.28205115;4303.58974373
4302.43589758;4235.51282052;4169.48717935;4272.94871802;4891.66666806;1972.56409777;-0.00000896;-0.00000896;3941.53846092;4368.33333362;4989.87179647;4332.43589765;4041.53846113;4301.41025655;4170.38461525;4303.58974373
4302.56410271;4235.51282052;4201.02564096;4300.12820527;4996.41025801;1973.58973880;-0.00000896;-0.00000896;3911.79487110;4366.41025669;4498.97435953;4305.00000014;4240.00000000;4274.48717956;4169.10256397;4303.58974373
4302.82051296;4235.00000000;4274.23076930;4299.87179501;4957.05128358;1973.71794393;-0.00000896;-0.00000896;3907.17948649;4369.74359003;4695.64102662;4305.25641040;4241.53846154;4301.53846168;4170.12820499;4303.58974373
4303.20512835;4207.56410250;4303.97435912;4272.94871802;4895.51282191;1939.10255924;-0.00000896;-0.00000896;3907.43589674;4401.02564138;4929.61538608;4306.92307707;4175.38461525;4301.66666681;4172.56410243;4303.58974373
4302.82051296;4203.84615378;4470.00000049;4274.23076930;5027.82051449;1976.53845675;-0.00000896;-0.00000896;3876.02564027;4403.20512856;4700.00000098;4305.89743604;4267.56410264;4300.76923091;4169.61538448;4303.58974373
4305.25641040;4176.28205115;4174.48717935;4300.51282066;4860.51282184;2009.23076451;-0.00000896;-0.00000896;3846.41025558;4432.82051324;5124.74359162;4306.66666681;4037.43589702;4300.64102578;4170.25641012;4303.58974373
4333.07692329;4201.15384609;4266.79487187;4302.82051296;4894.35897575;2009.48717477;-0.00000896;-0.00000896;3814.87179397;4433.71794914;4402.05128240;4305.89743604;4271.92307700;4301.53846168;4168.71794858;4336.41025662
4338.07692329;4201.53846147;4272.69230777;4303.84615399;4925.00000146;2002.05127733;-0.00000896;-0.00000896;3840.64102481;4436.41025683;4825.64102690;4333.46153867;4074.87179453;4301.53846168;4169.48717935;4336.41025662
4365.25641054;4171.92307679;4467.43589793;4332.69230790;5090.12820694;1970.89743111;-0.00000896;-0.00000896;3845.89743507;4435.64102606;4759.10256522;4307.56410271;3942.30769169;4301.66666681;4169.10256397;4369.35897464
4366.28205156;4142.30769210;4334.87179508;4335.51282073;5061.15384789;1943.58973873;-0.00000896;-0.00000896;3846.41025558;4437.43589786;4828.20512946;4306.41025655;3906.41025572;4300.51282066;4168.97435884;4369.35897464
4365.51282079;4135.64102544;4562.69230839;4338.07692329;5062.30769405;1942.94871309;-0.00000896;-0.00000896;3873.07692232;4404.74359009;4890.76923216;4304.23076937;4073.07692273;4302.69230784;4168.97435884;4369.35897464
4337.94871816;4104.74358947;4536.53846217;4340.38461560;4925.51282198;1971.02563623;-0.00000896;-0.00000896;3844.87179404;4371.02564131;4765.76923188;4304.23076937;4107.69230742;4301.15384630;4168.84615371;4336.53846175
4335.51282073;4070.25640991;4563.84615454;4366.02564131;4960.00000153;1975.76922598;-0.00000896;-0.00000896;3846.53846071;4339.10256431;4667.69230860;4304.87179501;4070.64102530;4303.20512835;4168.97435884;4336.53846175
4305.12820527;4074.99999966;4667.17948809;4366.53846182;4892.94871934;2003.46153374;-0.00000896;-0.00000896;3848.07692225;4303.84615399;4863.71795004;4305.76923091;4274.74358982;4303.46153860;4143.46153826;4303.71794886
4273.07692315;4073.71794837;4501.79487235;4368.97435926;4960.00000153;2010.12820041;-0.00000896;-0.00000896;3845.12820430;4269.61538469;4763.20512932;4333.07692329;4006.41025593;4302.56410271;4141.79487159;4270.89743597
4267.17948725;4074.61538427;4468.20512870;4368.20512849;5024.61538629;2072.05127747;-0.00000896;-0.00000896;3810.51281961;4205.25641019;4693.33333431;4307.17948732;3944.48717887;4303.84615399;4142.69230749;4270.89743597
4237.05128206;4104.61538434;4436.41025683;4368.58974387;4926.79487326;2107.69230318;-0.00000896;-0.00000896;3744.87179383;4204.48717942;4660.89743680;4304.61538476;4103.33333306;4302.94871809;4142.56410236;4238.07692308
4235.76923077;4136.15384595;4566.02564172;4365.89743618;4924.35897582;2105.76922626;-0.00000896;-0.00000896;3651.15384491;4172.30769217;4730.12820617;4304.10256425;4234.87179488;4302.30769245;4143.07692287;4238.07692308
4240.25641026;4169.23076910;4334.35897457;4336.79487201;4989.10256570;2071.53845696;-0.00000896;-0.00000896;3649.10256286;4171.66666653;4633.84615468;4303.20512835;4170.76923063;4304.87179501;4142.43589723;4238.07692308
4270.12820520;4173.58974345;4206.15384609;4333.58974380;4991.66666827;2039.74358509;-0.00000896;-0.00000896;3645.38461414;4168.58974345;4763.58974471;4304.23076937;4269.23076930;4305.25641040;4168.20512807;4270.89743597
4299.48717963;4202.43589737;4041.02564061;4304.23076937;4930.00000146;2040.89743125;229.99999153;-0.00000896;3647.69230645;4140.51282031;4400.12820548;4304.35897450;4142.05128185;4304.10256425;4142.43589723;4303.58974373
4303.33333348;4204.23076917;4238.33333334;4302.43589758;5057.17948892;2009.61537989;229.99999153;-0.00000896;3678.07692190;4136.02564082;4825.38461664;4305.38461553;4010.64102516;4304.23076937;4142.05128185;4303.58974373
4303.20512835;4206.92307686;4398.46153881;4302.30769245;4895.38461678;2041.66666201;229.99999153;-0.00000896;3678.46153728;4137.94871774;4634.10256494;4305.25641040;3912.17948649;4303.97435912;4142.56410236;4303.58974373
4302.43589758;4237.30769231;4338.07692329;4301.28205142;5022.05128372;2067.69230311;229.99999153;-0.00000896;3681.53846036;4137.94871774;4961.66666820;4305.12820527;4143.33333313;4302.69230784;4141.28205108;4303.58974373
4301.41025655;4238.07692308;4172.05128192;4300.00000014;4897.94871934;2008.84614912;5.89742694;-0.00000896;3711.92307582;4109.61538434;4928.46153992;4303.71794886;4141.02564082;4305.64102578;4142.30769210;4303.58974373
4273.58974366;4238.46153847;4266.66666674;4273.33333341;4931.15384762;2039.10255945;-0.00000896;-0.00000896;3714.23076812;4136.53846133;4564.48718019;4303.84615399;4370.64102592;4304.23076937;4141.92307672;4270.76923084
4269.10256418;4241.79487180;4235.25641026;4269.35897443;5024.74359142;2068.84614926;229.99999153;-0.00000896;3714.74358864;4142.05128185;4663.97435988;4303.71794886;4236.28205129;4304.74358989;4141.79487159;4270.76923084
4239.61538462;4268.97435905;4203.84615378;4267.56410264;5024.10256577;2069.87179029;-0.00000896;-0.00000896;3715.25640915;4203.84615378;4465.25641075;4301.53846168;4565.12820583;4303.97435912;4143.33333313;4237.94871795
4235.25641026;4270.25641033;4104.23076896;4267.56410264;4928.84615531;2006.66666195;229.99999153;-0.00000896;3745.25640922;4234.87179488;4564.10256480;4305.25641040;4463.71794921;4303.58974373;4141.15384595;4237.94871795
4205.51282045;4267.56410264;4366.02564131;4267.05128212;4956.66666820;2006.79486707;-0.00000896;-0.00000896;3743.20512717;4233.97435898;4832.17948843;4305.51282066;4272.82051289;4303.97435912;4142.56410236;4205.12820506
4175.51282038;4240.00000000;4139.61538441;4269.23076930;4892.30769370;2037.94871330;229.99999153;-0.00000896;3742.30769127;4235.12820513;4890.76923216;4301.66666681;4274.61538469;4304.35897450;4168.84615371;4172.30769217
4170.64102551;4237.30769231;4236.66666667;4269.61538469;4960.76923230;2040.89743125;-0.00000896;-0.00000896;3713.97435787;4237.30769231;4732.69230874;4302.94871809;4533.97435960;4304.74358989;4142.69230749;4172.30769217
4143.07692287;4236.53846154;4173.46153833;4271.79487187;4995.12820673;2067.82050824;229.99999153;-0.00000896;3709.74358864;4238.07692308;5058.46154020;4306.66666681;4240.51282052;4304.74358989;4142.30769210;4139.48717928
4140.38461518;4236.28205129;4205.76923070;4272.69230777;4795.64102683;2071.15384157;-0.00000896;-0.00000896;3678.58974241;4237.56410257;4504.10256466;4303.46153860;4500.12820569;4306.15384630;4142.69230749;4139.48717928
4139.35897415;4236.53846154;4104.35897408;4273.46153853;5029.61538629;2068.07691849;229.99999153;-0.00000896;3648.07692183;4236.53846154;4533.07692371;4304.87179501;4173.07692294;4306.41025655;4143.33333313;4139.48717928
4139.61538441;4236.02564103;4237.56410257;4300.89743604;4860.64102697;2067.94871337;-0.00000896;-0.00000896;3643.58974234;4267.43589751;4726.41025746;4303.07692322;4503.84615441;4306.02564117;4143.46153826;4139.48717928
4141.41025621;4236.79487180;4370.51282079;4301.02564117;4897.05128344;2071.28204670;229.99999153;-0.00000896;3612.82051150;4266.66666674;4533.58974422;4302.69230784;4236.15384616;4306.41025655;4168.20512807;4139.48717928
4141.66666646;4239.35897436;4207.94871788;4301.02564117;4893.33333473;2069.74358516;-0.00000896;-0.00000896;3582.69230631;4269.87179495;4923.84615531;4304.23076937;4103.20512793;4303.33333348;4143.33333313;4139.48717928
4143.46153826;4268.33333341;4140.89743569;4301.79487194;4830.89743715;2070.38461080;229.99999153;-0.00000896;3578.97435759;4271.15384623;4567.94871865;4305.00000014;4304.61538476;4305.25641040;4140.89743569;4139.48717928
4170.76923063;4268.58974366;4208.20512814;4274.74358982;4930.38461685;2067.69230311;-0.00000896;-0.00000896;3580.64102426;4266.66666674;5027.05128372;4304.61538476;3876.92307616;4305.64102578;4143.20512800;4172.30769217
4172.17948704;4268.97435905;4401.92307727;4271.66666674;4731.53846258;2070.89743132;229.99999153;-0.00000896;3579.10256272;4269.74358982;4529.35897499;4303.84615399;4143.33333313;4306.92307707;4168.84615371;4172.30769217
4172.94871781;4271.41025648;4300.38461553;4268.84615392;4863.84615517;2070.89743132;-0.00000896;-0.00000896;3577.56410118;4273.46153853;4798.33333452;4299.74358989;4269.74358982;4307.17948732;4168.71794858;4172.30769217
4175.51282038;4273.84615392;4175.12820499;4240.76923077;4826.28205254;2072.69230311;229.99999153;-0.00000896;3551.02563957;4274.23076930;4632.69230853;4302.05128219;4142.05128185;4306.41025655;4168.84615371;4172.30769217
4202.05128199;4300.00000014;4006.15384567;4238.33333334;4961.92307846;2072.56409798;-0.00000896;-0.00000896;3577.69230631;4300.25641040;4633.58974443;4301.92307707;4139.87179467;4306.79487194;4168.58974345;4205.12820506
4204.74358968;4302.43589758;4234.10256411;4236.15384616;4960.00000153;2072.05127747;229.99999153;-0.00000896;3579.10256272;4306.15384630;4631.28205212;4302.82051296;4267.05128212;4307.17948732;4169.61538448;4205.12820506
4207.69230763;4302.43589758;4004.35897388;4208.84615378;4961.53846307;2074.10255952;-0.00000896;-0.00000896;3581.28204990;4306.79487194;4925.89743736;4302.69230784;4069.87179453;4304.61538476;4168.97435884;4205.12820506
4235.00000000;4302.69230784;4043.33333292;4208.07692301;5087.17948899;2071.92307234;229.99999153;-0.00000896;3584.35897297;4336.92307714;4566.28205198;4304.87179501;4465.00000049;4306.66666681;4169.35897422;4237.94871795
4236.15384616;4303.07692322;4040.89743548;4207.05128199;4961.79487333;2070.38461080;-0.00000896;-0.00000896;3585.38461400;4365.25641054;4956.79487333;4303.84615399;4203.07692301;4304.48717963;4170.25641012;4237.94871795
4240.00000000;4303.71794886;4036.92307651;4203.33333327;4992.30769391;2072.82050824;229.99999153;-0.00000896;3614.48717817;4370.38461567;4435.00000042;4303.07692322;4273.33333341;4306.28205142;4169.87179474;4237.94871795
4267.43589751;4303.71794886;4203.07692301;4203.20512814;4890.51282191;2072.30768773;-0.00000896;-0.00000896;3643.58974234;4372.56410285;4798.07692426;4304.87179501;4072.56410222;4305.64102578;4170.25641012;4270.76923084
4267.94871802;4305.76923091;4208.07692301;4204.48717942;4925.64102710;2068.71794414;229.99999153;-0.00000896;3645.25640901;4366.41025669;4630.25641109;4303.58974373;4170.64102551;4306.79487194;4170.51282038;4270.76923084
4269.74358982;4305.12820527;4238.71794872;4203.71794865;4930.76923223;2041.79486714;-0.00000896;-0.00000896;3648.58974234;4400.25641061;4761.28205240;4300.38461553;4136.41025621;4306.28205142;4170.76923063;4270.76923084
4269.74358982;4305.00000014;3939.35897374;4206.53846147;4958.07692461;2072.69230311;229.99999153;-0.00000896;3649.35897311;4404.48717984;4762.69230881;4305.38461553;4204.48717942;4305.51282066;4171.92307679;4270.76923084
4271.15384623;4306.41025655;4208.07692301;4206.92307686;4891.41025780;2106.02563651;-0.00000896;-0.00000896;3648.20512696;4398.71794907;4530.64102627;4301.79487194;4238.07692308;4305.89743604;4170.76923063;4270.76923084
4271.92307700;4334.74358996;4138.33333313;4208.33333327;4927.30769377;2108.33332882;4.74358078;-0.00000896;3646.92307568;4401.92307727;5024.61538629;4301.28205142;3975.12820458;4306.15384630;4171.15384602;4270.76923084
4274.35897443;4338.33333355;4205.89743583;4206.92307686;4930.89743736;2100.64102113;-0.00000896;-0.00000896;3647.82051157;4434.23076965;4634.35897520;4304.61538476;4337.43589765;4305.25641040;4171.15384602;4270.76923084
4300.51282066;4365.38461567;4240.12820513;4208.46153840;4730.64102669;2073.71794414;229.99999153;-0.00000896;3646.66666542;4464.23076972;4763.84615496;4302.17948732;4073.84615350;4304.74358989;4170.25641012;4303.58974373
4302.82051296;4365.12820541;4240.38461539;4234.61538462;4859.23077055;2069.48717490;229.99999153;-0.00000896;3646.41025516;4497.05128261;4404.87179522;4303.84615399;4237.82051282;4303.97435912;4171.53846140;4303.58974373
4304.87179501;4365.51282079;4008.97435849;4235.76923077;4893.07692447;2039.61537996;229.99999153;-0.00000896;3645.89743465;4500.25641082;4399.87179522;4301.92307707;4074.87179453;4306.53846168;4173.07692294;4303.58974373
4332.82051303;4338.97435919;4274.61538469;4235.64102564;5023.97436065;2037.17948253;229.99999153;-0.00000896;3646.15384491;4531.41025704;4732.69230874;4302.69230784;4043.58974318;4307.30769245;4171.66666653;4336.41025662
4334.23076944;4336.53846175;4170.12820499;4237.94871795;4963.20512974;2040.38461073;-0.00000896;-0.00000896;3649.35897311;4533.20512883;4728.46153951;4299.61538476;3846.28205045;4306.02564117;4172.17948704;4336.41025662
4335.76923098;4334.23076944;4400.12820548;4237.17948718;4994.10256570;2037.30768766;-0.00000896;-0.00000896;3648.97435773;4562.05128275;4762.05128317;4301.92307707;3945.64102502;4305.51282066;4172.30769217;4336.41025662
4335.89743611;4306.79487194;4201.92307686;4237.17948718;4799.87179606;2036.79486714;-0.00000896;-0.00000896;3648.71794747;4563.46153916;4765.12820624;4302.69230784;4108.33333306;4307.30769245;4172.43589730;4336.41025662
4336.02564124;4304.74358989;4335.51282073;4238.71794872;5090.89743771;2038.20512355;-0.00000896;-0.00000896;3647.17948593;4563.20512890;4432.17948760;4303.33333348;4142.43589723;4306.28205142;4171.28205115;4336.41025662
4337.82051303;4301.15384630;4142.56410236;4236.79487180;4989.48718109;2039.87179022;-0.00000896;-0.00000896;3645.64102439;4563.97435967;4924.61538608;4301.66666681;3978.71794817;4306.53846168;4172.82051269;4336.41025662
4337.17948739;4300.76923091;4366.28205156;4238.58974359;5027.69230936;2041.41025176;-0.00000896;-0.00000896;3644.87179362;4563.97435967;5022.30769398;4300.51282066;4205.38461532;4305.51282066;4172.30769217;4336.41025662
4338.97435919;4274.35897443;4172.30769217;4238.33333334;4926.53846300;2069.74358516;-0.00000896;-0.00000896;3616.28204997;4568.46153916;4859.87179620;4303.07692322;3939.99999938;4305.76923091;4172.69230756;4336.41025662
4340.12820534;4299.74358989;4240.51282052;4238.33333334;4896.15384755;2103.97435446;-0.00000896;-0.00000896;3614.99999868;4567.17948788;4765.64102676;4302.17948732;3945.51281989;4333.46153867;4173.33333320;4336.41025662
4366.28205156;4301.02564117;4205.89743583;4236.92307693;4864.10256543;2075.25640567;-0.00000896;-0.00000896;3613.84615253;4568.07692378;4503.58974415;4302.05128219;4202.05128199;4304.87179501;4173.20512807;4369.23076951
4368.20512849;4299.61538476;4307.30769245;4234.61538462;4956.28205281;2038.71794407;-0.00000896;-0.00000896;3613.58974227;4600.25641102;4502.05128261;4302.30769245;4075.51282017;4307.30769245;4173.20512807;4369.23076951
4368.71794900;4273.58974366;4202.69230763;4235.89743590;4895.64102703;2037.94871330;-0.00000896;-0.00000896;3613.07692176;4628.71794956;4467.43589793;4302.05128219;4109.23076896;4306.28205142;4172.82051269;4369.23076951
4369.23076951;4269.87179495;4176.02564089;4237.69230770;4830.89743715;2067.69230311;-0.00000896;-0.00000896;3614.23076791;4602.17948795;5093.97436078;4303.97435912;3809.10256320;4332.82051303;4172.82051269;4369.23076951
4369.74359003;4267.30769238;4274.23076930;4237.56410257;4895.25641165;2042.82050817;-0.00000896;-0.00000896;3611.92307561;4600.89743667;4465.89743639;4300.89743604;4009.74358926;4333.46153867;4172.43589730;4369.23076951
4369.74359003;4239.23076923;4170.51282038;4236.28205129;4727.82051387;2009.10255938;-0.00000896;-0.00000896;3612.82051150;4599.61538538;4667.43589834;4303.33333348;4206.28205122;4305.51282066;4172.30769217;4369.23076951
4368.07692336;4235.12820513;4602.69230846;4237.56410257;4863.33333466;2005.12820041;-0.00000896;-0.00000896;3615.76922945;4597.17948795;4499.87179543;4303.97435912;4270.12820520;4306.66666681;4175.12820499;4369.23076951
4367.30769259;4204.74358968;4466.41025690;4236.53846154;4895.38461678;2035.38461073;-0.00000896;-0.00000896;3616.15384484;4595.51282128;4661.41025732;4303.71794886;4041.66666625;4332.94871816;4172.17948704;4369.23076951
4340.00000021;4203.20512814;4336.28205149;4237.05128206;5062.43589918;2041.79486714;-0.00000896;-0.00000896;3616.92307561;4536.53846217;4432.94871837;4303.07692322;4108.46153819;4332.69230790;4172.43589730;4336.41025662
4334.23076944;4175.89743576;4401.92307727;4236.02564103;4960.38461692;2039.61537996;-0.00000896;-0.00000896;3618.07692176;4535.51282114;4825.38461664;4303.33333348;4238.20512821;4307.17948732;4171.92307679;4336.41025662
4304.74358989;4173.84615371;4401.28205163;4236.53846154;4925.38461685;2074.10255952;-0.00000896;-0.00000896;3643.07692183;4501.41025697;4696.79487277;4301.41025655;4107.17948691;4333.71794893;4171.53846140;4303.58974373
4274.61538469;4173.07692294;4631.92307776;4235.64102564;4799.87179606;2073.84614926;-0.00000896;-0.00000896;3643.97435773;4500.38461594;4666.66666757;4301.66666681;4141.66666646;4305.25641040;4173.46153833;4270.76923084
4268.58974366;4172.94871781;4470.25641075;4234.61538462;4831.53846279;2070.51281593;-0.00000896;-0.00000896;3645.12820388;4501.41025697;4366.92307720;4301.66666681;4109.87179460;4305.25641040;4171.66666653;4270.76923084
4237.94871795;4171.41025628;4334.10256431;4234.48717949;4958.33333487;2075.12820055;-0.00000896;-0.00000896;3643.71794747;4498.97435953;4662.43589834;4299.48717963;4202.82051275;4306.53846168;4173.07692294;4237.94871795
4206.53846147;4171.28205115;4337.94871816;4233.84615385;4963.46153999;2073.46153388;-0.00000896;-0.00000896;3617.82051150;4471.15384664;4664.35897527;4302.56410271;3979.23076868;4306.53846168;4171.41025628;4205.12820506
4204.48717942;4170.38461525;4367.30769259;4207.30769224;4931.15384762;2075.64102106;-0.00000896;-0.00000896;3617.17948586;4470.76923126;4894.48718088;4301.92307707;3841.79487096;4333.71794893;4168.71794858;4205.12820506
4174.10256397;4169.61538448;4400.38461574;4204.87179481;4857.56410389;2074.61538003;-0.00000896;-0.00000896;3643.20512696;4470.64102613;4497.43589800;4300.89743604;4039.99999959;4306.02564117;4171.66666653;4172.30769217
4172.69230756;4169.74358961;4563.46153916;4203.07692301;4928.20512967;2072.17948260;229.99999153;-0.00000896;3616.15384484;4467.94871844;4759.74359086;4304.48717963;3813.58974269;4307.30769245;4171.53846140;4172.30769217
4171.41025628;4170.51282038;4405.51282086;4203.97435891;4930.89743736;2100.76922626;229.99999153;-0.00000896;3615.38461407;4466.28205177;4496.53846210;4302.17948732;4104.35897408;4306.92307707;4170.76923063;4172.30769217
4173.20512807;4171.79487166;4206.53846147;4203.33333327;4962.82051435;2107.17948267;229.99999153;-0.00000896;3613.97435766;4468.46153895;4765.64102676;4299.48717963;4040.12820472;4307.56410271;4171.15384602;4172.30769217
4172.17948704;4201.02564096;4141.28205108;4203.07692301;4896.41025780;2105.38461087;229.99999153;-0.00000896;3611.02563971;4465.89743639;4432.30769273;4304.48717963;4010.89743541;4307.05128219;4171.41025628;4172.30769217
4175.76923063;4201.41025634;4043.71794830;4203.84615378;4995.25641186;2069.99999542;-0.00000896;-0.00000896;3616.28204997;4497.82051338;4299.87179501;4304.87179501;4074.48717914;4304.87179501;4171.02564089;4172.30769217
4202.05128199;4201.92307686;4269.35897443;4203.20512814;4990.64102724;2071.28204670;1.79486283;-0.00000896;3616.92307561;4468.20512870;4696.53846252;4301.79487194;3974.61538406;4307.30769245;4175.12820499;4205.12820506
4202.17948711;4202.43589737;4306.66666681;4202.69230763;4795.89743708;2074.23076465;229.99999153;-0.00000896;3617.56410125;4497.43589800;4533.58974422;4303.84615399;3973.84615329;4307.56410271;4171.41025628;4205.12820506
4203.58974352;4204.23076917;4201.53846147;4204.35897429;4795.38461657;2073.07691849;1.79486283;-0.00000896;3617.56410125;4470.51282100;4795.38461657;4304.48717963;4007.56410208;4306.66666681;4170.76923063;4205.12820506
4204.48717942;4205.25641019;4272.82051289;4202.05128199;4733.33333438;2102.94871344;229.99999153;-0.00000896;3643.71794747;4496.53846210;4368.07692336;4302.69230784;4271.66666674;4332.56410278;4171.15384602;4205.12820506
4203.84615378;4207.17948711;4143.46153826;4202.43589737;4863.71795004;2072.05127747;1.79486283;-0.00000896;3645.51281927;4502.30769287;4368.07692336;4301.79487194;4172.56410243;4306.92307707;4171.79487166;4205.12820506
4204.61538455;4208.20512814;4332.69230790;4203.33333327;4960.12820666;2073.97435439;229.99999153;-0.00000896;3647.43589619;4501.41025697;4502.94871851;4303.97435912;4076.79487145;4306.92307707;4171.79487166;4205.12820506
4204.99999993;4208.84615378;4204.74358968;4204.74358968;4827.17948843;2070.89743132;1.79486283;-0.00000896;3648.33333209;4498.20512876;4432.82051324;4300.25641040;4368.46153874;4306.53846168;4172.82051269;4205.12820506
4205.64102558;4207.30769224;4173.84615371;4205.76923070;4923.33333480;2070.64102106;229.99999153;-0.00000896;3648.46153721;4531.02564165;4898.33333473;4303.71794886;4005.64102516;4306.66666681;4171.53846140;4205.12820506
4204.99999993;4208.84615378;4175.38461525;4205.76923070;4864.48718081;2070.89743132;1.79486283;-0.00000896;3648.58974234;4533.20512883;4335.12820534;4307.30769245;4241.41025641;4333.07692329;4170.89743576;4205.12820506
4204.74358968;4207.94871788;4039.48717907;4204.35897429;4930.51282198;2069.23076465;229.99999153;-0.00000896;3650.25640901;4533.07692371;4436.41025683;4304.87179501;4104.61538434;4332.30769252;4171.79487166;4205.12820506
4204.23076917;4206.79487173;4273.97435905;4205.38461532;4862.56410389;2036.66666201;1.79486283;-0.00000896;3649.48717824;4534.74359037;4534.74359037;4306.79487194;4235.00000000;4306.28205142;4171.66666653;4205.12820506
4203.84615378;4204.35897429;4074.23076889;4204.23076917;4960.64102717;2009.87179015;229.99999153;-0.00000896;3676.79487062;4535.64102627;4861.41025773;4304.74358989;4044.61538420;4305.25641040;4171.66666653;4205.12820506
4202.30769224;4201.53846147;4333.97435919;4204.87179481;4895.76923216;2036.66666201;1.79486283;-0.00000896;3677.56410139;4533.58974422;4471.15384664;4300.64102578;4206.66666660;4332.94871816;4171.53846140;4205.12820506
4202.82051275;4174.23076910;3715.76922966;4205.89743583;4865.00000132;2069.99999542;229.99999153;-0.00000896;3677.43589626;4533.97435960;4661.79487270;4302.69230784;4170.51282038;4307.30769245;4172.69230756;4205.12820506
4201.41025634;4172.82051269;4140.38461518;4204.10256404;4891.79487319;2068.97435439;1.79486283;-0.00000896;3676.41025523;4533.07692371;4403.33333368;4305.25641040;4237.94871795;4307.30769245;4172.05128192;4205.12820506
4174.61538448;4170.89743576;3973.84615329;4202.69230763;5087.43589925;2071.28204670;229.99999153;-0.00000896;3677.56410139;4535.89743653;4990.12820673;4304.87179501;4070.25640991;4306.53846168;4171.28205115;4172.30769217
4172.17948704;4170.12820499;4176.15384602;4174.23076910;4895.38461678;2104.23076472;1.79486283;-0.00000896;3679.35897318;4533.20512883;4271.28205136;4303.33333348;4302.56410271;4307.05128219;4171.28205115;4172.17948704
4169.23076910;4171.15384602;4042.56410215;4171.02564089;4891.66666806;2042.56409791;229.99999153;-0.00000896;3678.46153728;4531.92307755;4895.64102703;4305.12820527;3905.64102495;4307.56410271;4171.66666653;4172.17948704
4143.07692287;4170.12820499;4269.35897443;4169.48717935;4858.84615517;2037.30768766;1.79486283;-0.00000896;3678.71794754;4537.30769294;4466.66666716;4303.46153860;4234.87179488;4305.64102578;4171.28205115;4139.35897415
4141.79487159;4143.07692287;3744.48717845;4168.20512807;4799.48718067;2007.43589271;229.99999153;-0.00000896;3678.20512703;4535.38461601;4832.05128331;4303.20512835;4040.89743548;4307.56410271;4173.84615371;4139.35897415
4140.51282031;4142.94871774;3910.89743521;4168.46153833;4927.05128351;2035.38461073;1.79486283;-0.00000896;3680.25640908;4531.02564165;4595.64102641;4301.79487194;4107.94871767;4304.48717963;4171.53846140;4139.35897415
4139.23076903;4141.02564082;3616.79487048;4169.61538448;4959.87179640;2038.46153381;229.99999153;-0.00000896;3679.61538344;4531.92307755;4531.53846217;4303.46153860;4237.82051282;4306.41025655;4171.41025628;4139.35897415
4138.58974339;4140.76923056;3746.41025537;4170.25641012;4894.10256550;2038.58973894;1.79486283;-0.00000896;3680.64102446;4502.82051338;4761.28205240;4303.97435912;3908.71794803;4304.87179501;4171.41025628;4139.35897415
4139.99999980;4138.84615364;3943.33333271;4172.05128192;4930.89743736;2041.79486714;229.99999153;-0.00000896;3681.15384498;4529.61538524;4597.43589820;4302.43589758;4138.07692287;4305.00000014;4171.28205115;4139.35897415
4140.12820492;4138.33333313;4011.15384567;4174.61538448;4795.64102683;2039.35896971;1.79486283;-0.00000896;3681.92307575;4500.76923133;4468.46153895;4301.28205142;4267.43589751;4307.43589758;4169.74358961;4139.35897415
4141.53846133;4136.66666646;4011.28205080;4174.74358961;4993.58974519;2040.51281586;229.99999153;-0.00000896;3681.53846036;4499.61538518;4896.02564242;4304.87179501;4141.53846133;4305.89743604;4170.76923063;4139.35897415
4168.58974345;4135.38461518;4005.51282003;4174.99999986;4794.87179606;2041.15384150;1.79486283;-0.00000896;3709.99999889;4469.10256459;4631.15384699;4306.41025655;4005.89743541;4303.84615399;4171.02564089;4172.17948704
4169.61538448;4136.02564082;4171.15384602;4174.99999986;4924.10256557;2069.61538003;229.99999153;-0.00000896;3710.38461428;4470.64102613;4405.25641061;4305.00000014;4206.41025634;4304.23076937;4171.02564089;4172.17948704
4172.56410243;4137.43589723;4042.43589702;4176.28205115;4924.74359121;2071.15384157;33.20511931;-0.00000896;3711.41025530;4464.48717998;4668.20512911;4306.53846168;4004.23076875;4302.43589758;4170.51282038;4172.17948704
4175.12820499;4138.58974339;4239.74358975;4203.20512814;4928.71795018;2040.76922612;39.48717060;-0.00000896;3713.07692197;4464.35897485;4730.12820617;4303.33333348;4073.71794837;4305.25641040;4171.02564089;4172.30769217
4176.15384602;4140.25641005;4106.53846126;4203.97435891;4795.51282170;2008.46153374;72.17947836;-0.00000896;3716.02563992;4437.94871837;4663.07692398;4303.97435912;4104.61538434;4303.71794886;4169.35897422;4172.30769217
4202.56410250;4140.51282031;4268.46153853;4169.35897422;4925.51282198;2071.02563644;229.99999153;-0.00000896;3682.56410139;4465.76923126;4731.53846258;4303.58974373;4043.46153805;4305.00000014;4170.76923063;4204.99999993
4204.61538455;4168.46153833;4104.35897408;4202.30769224;4858.97436030;2104.87179036;229.99999153;-0.00000896;3775.76922980;4436.15384657;4793.71794990;4305.00000014;3844.35897353;4307.43589758;4172.82051269;4205.12820506
4204.23076917;4172.94871781;4301.53846168;4267.43589751;4864.87179620;2041.41025176;229.99999153;-0.00000896;3711.15384505;4463.84615434;4470.76923126;4303.97435912;4102.82051255;4305.64102578;4170.38461525;4205.12820506
4204.87179481;4172.69230756;4169.23076910;4239.48717949;4924.74359121;2037.69230304;229.99999153;-0.00000896;3714.23076812;4438.20512863;4824.87179613;4304.87179501;3908.97435828;4303.84615399;4170.89743576;4205.12820506
4206.92307686;4172.30769217;4435.89743632;4235.00000000;4927.56410403;2007.05127733;-0.00000896;-0.00000896;3741.53846050;4464.23076972;4596.41025718;4306.41025655;4307.43589758;4304.74358989;4171.15384602;4205.12820506
4207.43589737;4171.92307679;4239.87179488;4208.97435891;4794.23077042;2042.69230304;-0.00000896;-0.00000896;3711.92307582;4465.38461587;5062.05128379;4303.97435912;3974.61538406;4305.64102578;4170.51282038;4205.12820506
4208.20512814;4172.69230756;4106.41025614;4234.87179488;4829.23077049;2070.38461080;-0.00000896;-0.00000896;3711.66666556;4466.41025690;4271.79487187;4302.43589758;4175.38461525;4305.76923091;4170.38461525;4205.12820506
4235.00000000;4173.58974345;4434.35897478;4207.43589737;4897.43589883;2038.97435432;-0.00000896;-0.00000896;3713.20512710;4471.53846203;4863.58974491;4305.25641040;4044.23076882;4306.02564117;4170.38461525;4237.94871795
4235.25641026;4173.07692294;4339.87179508;4208.07692301;4961.79487333;2007.17948246;-0.00000896;-0.00000896;3713.97435787;4499.61538518;4566.66666737;4307.17948732;4108.07692280;4304.10256425;4170.25641012;4237.94871795
4208.20512814;4171.92307679;4368.84615413;4235.64102564;4762.17948830;2007.56409784;-0.00000896;-0.00000896;3714.35897325;4498.33333389;4729.10256515;4304.87179501;4075.76923043;4305.00000014;4169.48717935;4205.12820506
4207.82051275;4168.84615371;4173.58974345;4236.15384616;4925.00000146;2009.48717477;-0.00000896;-0.00000896;3715.38461428;4471.28205177;4438.58974401;4304.87179501;4237.05128206;4303.33333348;4171.92307679;4205.12820506
4205.76923070;4170.51282038;4333.71794893;4237.30769231;4764.48718060;2068.07691849;-0.00000896;-0.00000896;3743.71794768;4467.05128254;4434.35897478;4302.56410271;4205.25641019;4306.92307707;4169.87179474;4205.12820506
4205.64102558;4170.38461525;4203.71794865;4236.41025641;5027.05128372;2068.33332875;-0.00000896;-0.00000896;3744.61538358;4438.07692350;5091.02564284;4303.71794886;4267.30769238;4303.84615399;4168.71794858;4205.12820506
4204.10256404;4171.02564089;4437.43589786;4238.07692308;4923.20512967;2036.53845689;-0.00000896;-0.00000896;3749.48717845;4438.33333375;4306.92307707;4305.76923091;4075.51282017;4306.02564117;4169.61538448;4205.12820506
4176.02564089;4169.61538448;4497.82051338;4239.87179488;4862.43589876;2038.58973894;-0.00000896;-0.00000896;3775.51281954;4435.12820555;4926.15384762;4307.43589758;4077.30769196;4304.10256425;4169.35897422;4172.30769217
4171.02564089;4169.23076910;4368.97435926;4240.38461539;4858.33333466;2035.64102099;-0.00000896;-0.00000896;3776.41025544;4405.64102599;4600.00000077;4305.51282066;3975.89743535;4305.25641040;4168.20512807;4172.30769217
4142.82051262;4143.46153826;4271.02564110;4237.69230770;4794.61538580;2034.87179022;-0.00000896;-0.00000896;3775.12820416;4433.71794914;4431.02564145;4304.23076937;4302.43589758;4305.38461553;4169.74358961;4139.48717928
4140.38461518;4142.82051262;4432.17948760;4235.64102564;4924.35897582;2035.89743125;-0.00000896;-0.00000896;3749.35897332;4405.12820548;4661.66666757;4305.76923091;4142.17948697;4301.66666681;4169.35897422;4139.48717928
4139.23076903;4141.41025621;4241.28205129;4207.94871788;4860.89743722;2006.41025169;-0.00000896;-0.00000896;3747.56410153;4405.00000035;4306.28205142;4305.00000014;4267.56410264;4303.71794886;4169.48717935;4139.48717928
4136.92307672;4140.89743569;4301.53846168;4207.17948711;4892.94871934;2009.87179015;-0.00000896;-0.00000896;3746.92307588;4430.76923119;4699.61538559;4305.38461553;3975.25640970;4306.02564117;4169.61538448;4139.48717928
4136.15384595;4141.66666646;4205.25641019;4203.84615378;4828.33333459;2038.46153381;-0.00000896;-0.00000896;3742.69230665;4402.56410292;4597.05128282;4303.84615399;3846.53846071;4302.17948732;4169.23076910;4139.48717928
4138.20512800;4142.69230749;4269.74358982;4201.79487173;4894.74359114;2038.97435432;-0.00000896;-0.00000896;3742.94871691;4404.87179522;4437.30769273;4303.58974373;4205.38461532;4303.33333348;4168.84615371;4139.48717928
4141.02564082;4142.69230749;4070.89743555;4175.12820499;4761.92307804;2005.38461066;-0.00000896;-0.00000896;3744.61538358;4432.17948760;4959.48718102;4332.43589765;4037.30769189;4302.94871809;4169.23076910;4139.35897415
4139.87179467;4140.76923056;4043.71794830;4173.46153833;4893.71795011;1975.51281572;-0.00000896;-0.00000896;3747.30769127;4431.66666709;4733.58974464;4305.25641040;4206.66666660;4304.23076937;4171.41025628;4139.35897415
4140.76923056;4138.07692287;4070.12820478;4174.10256397;4925.38461685;2008.97435425;-0.00000896;-0.00000896;3747.30769127;4401.92307727;4597.05128282;4307.30769245;4075.12820478;4304.23076937;4169.61538448;4139.35897415
4141.92307672;4136.41025621;4043.58974318;4202.43589737;4694.35897534;2007.69230297;-0.00000896;-0.00000896;3774.87179390;4398.07692343;4793.58974477;4304.23076937;4010.76923029;4303.71794886;4169.48717935;4139.48717928
4169.23076910;4136.79487159;4201.02564096;4202.69230763;4925.76923223;2004.99999528;-0.00000896;-0.00000896;3775.12820416;4398.20512856;4862.43589876;4307.43589758;4041.92307651;4304.35897450;4169.23076910;4172.30769217
4170.64102551;4109.87179460;3876.02564027;4203.46153840;4892.43589883;2006.41025169;-0.00000896;-0.00000896;3776.41025544;4373.20512849;4470.89743639;4306.41025655;4367.43589772;4302.82051296;4169.61538448;4172.30769217
4171.15384602;4110.51282024;4041.79487138;4203.97435891;4923.58974505;2002.05127733;229.99999153;-0.00000896;3748.07692204;4365.64102592;4797.30769349;4304.35897450;4208.33333327;4303.97435912;4169.10256397;4172.30769217
4171.79487166;4109.74358947;4234.35897436;4176.15384602;4826.66666792;2039.23076458;36.15383726;-0.00000896;3774.61538365;4369.87179515;4832.05128331;4303.97435912;3938.71794810;4305.12820527;4168.97435884;4172.17948704
4173.20512807;4136.02564082;4010.76923029;4203.58974352;4795.00000119;2040.76922612;1.02563207;-0.00000896;3775.51281954;4365.64102592;4434.23076965;4307.17948732;4204.35897429;4302.56410271;4168.71794858;4172.30769217
4173.20512807;4137.56410236;4173.46153833;4204.74358968;4959.61538615;2036.02563637;-0.00000896;-0.00000896;3746.41025537;4340.38461560;4992.94871955;4305.76923091;4006.02564054;4301.66666681;4169.10256397;4172.30769217
4174.99999986;4136.92307672;4303.33333348;4204.87179481;4830.25641151;2036.66666201;229.99999153;-0.00000896;3774.35897339;4338.58974380;4305.89743604;4305.51282066;4303.07692322;4303.84615399;4141.02564082;4172.30769217
4174.10256397;4138.33333313;4110.38461511;4206.92307686;4864.35897568;2039.48717484;229.99999153;-0.00000896;3749.10256306;4365.76923105;4961.15384769;4306.66666681;3809.74358884;4302.56410271;4168.46153833;4172.30769217
4175.38461525;4138.33333313;4106.92307665;4206.41025634;4825.38461664;2070.25640567;229.99999153;-0.00000896;3747.17948614;4334.48717970;4307.30769245;4305.76923091;4139.48717928;4304.10256425;4168.71794858;4172.30769217
4175.51282038;4138.97435877;4202.56410250;4205.76923070;4826.66666792;2071.02563644;229.99999153;-0.00000896;3774.35897339;4338.07692329;4600.12820590;4305.25641040;4042.05128164;4304.10256425;4143.46153826;4172.30769217
4202.69230763;4139.87179467;4205.64102558;4207.56410250;4859.48718081;2075.51281593;229.99999153;-0.00000896;3774.61538365;4334.48717970;4828.97436023;4306.92307707;4040.25640984;4302.69230784;4168.20512807;4205.12820506
4203.71794865;4142.82051262;4173.97435884;4208.84615378;4958.33333487;2107.82050831;229.99999153;-0.00000896;3774.87179390;4332.69230790;4403.84615420;4305.38461553;4237.30769231;4303.97435912;4143.46153826;4205.12820506
4205.38461532;4172.30769217;4011.92307644;4235.89743590;4731.92307797;2135.64102120;229.99999153;-0.00000896;3774.99999903;4338.97435919;4894.23077062;4305.51282066;4006.41025593;4302.05128219;4168.46153833;4205.12820506
4207.05128199;4176.28205115;4075.89743555;4235.38461539;4898.20512960;2074.35896978;229.99999153;-0.00000896;3776.28205031;4338.58974380;4601.15384692;4307.17948732;4007.43589695;4302.69230784;4169.10256397;4205.12820506
4234.61538462;4205.12820506;4138.20512800;4233.84615385;4897.43589883;2038.20512355;229.99999153;-0.00000896;3778.33333236;4367.56410285;4497.05128261;4305.76923091;4073.71794837;4302.94871809;4168.33333320;4237.94871795
4235.38461539;4207.30769224;4233.84615385;4236.79487180;4962.30769384;2002.82050810;229.99999153;-0.00000896;3779.48717852;4369.23076951;4962.69230922;4306.15384630;3945.12820451;4304.23076937;4143.46153826;4237.94871795
4238.33333334;4205.89743583;4335.12820534;4236.28205129;4830.64102690;1975.38461059;229.99999153;-0.00000896;3774.35897339;4372.56410285;4597.30769308;4303.33333348;3743.07692204;4303.07692322;4143.20512800;4237.94871795
4241.15384616;4205.64102558;4405.76923112;4236.15384616;4894.74359114;2002.82050810;229.99999153;-0.00000896;3746.79487076;4399.48717984;4825.00000125;4305.76923091;3578.97435759;4303.20512835;4140.12820492;4237.94871795
4267.17948725;4204.99999993;4173.84615371;4236.02564103;4762.56410368;2004.99999528;229.99999153;-0.00000896;3744.48717845;4400.76923112;4532.56410319;4305.51282066;3844.35897353;4302.82051296;4168.33333320;4270.76923084
4271.15384623;4206.66666660;4404.48717984;4236.79487180;4957.17948871;1974.61537982;229.99999153;-0.00000896;3742.05128101;4404.74359009;4766.15384727;4303.46153860;3944.61538399;4302.30769245;4143.33333313;4270.76923084
4271.53846161;4206.66666660;4301.92307707;4237.17948718;4925.64102710;1969.99999521;229.99999153;-0.00000896;3715.89743479;4403.71794907;4269.74358982;4304.74358989;4010.12820465;4304.87179501;4143.46153826;4270.76923084
4299.48717963;4205.51282045;4530.00000063;4236.02564103;4832.30769356;1944.23076437;229.99999153;-0.00000896;3713.97435787;4432.69230811;4796.66666785;4333.46153867;3873.07692232;4302.17948732;4169.35897422;4303.58974373
4302.17948732;4203.20512814;4598.58974436;4205.25641019;4862.30769363;1975.51281572;229.99999153;-0.00000896;3714.87179376;4402.94871830;4631.53846238;4305.64102578;3647.43589619;4302.69230784;4169.99999986;4303.58974373
4304.10256425;4201.53846147;4433.97435940;4202.56410250;4864.87179620;1970.12820034;229.99999153;-0.00000896;3743.97435794;4400.64102599;4534.74359037;4306.15384630;3974.87179432;4303.97435912;4143.20512800;4303.58974373
4307.30769245;4173.33333320;4694.35897534;4176.15384602;4796.28205247;1970.25640547;229.99999153;-0.00000896;3745.38461435;4401.66666702;4923.33333480;4333.71794893;4136.92307672;4302.56410271;4168.58974345;4303.46153860
4307.56410271;4171.41025628;4398.84615420;4174.48717935;4697.05128303;2002.56409784;229.99999153;-0.00000896;3747.43589640;4403.07692343;4368.97435926;4303.58974373;3912.43589674;4303.84615399;4142.94871774;4303.46153860
4335.76923098;4141.66666646;4470.64102613;4174.61538448;4828.58974484;2003.97435425;229.99999153;-0.00000896;3747.43589640;4371.79487208;4698.33333431;4305.00000014;3846.53846071;4302.94871809;4141.41025621;4336.28205149
4337.43589765;4138.20512800;4466.53846203;4173.07692294;4828.58974484;2006.28204656;229.99999153;-0.00000896;3748.71794768;4369.48717977;4533.46153909;4304.74358989;3842.30769148;4301.66666681;4142.17948697;4336.28205149
4366.66666695;4109.35897408;4666.41025732;4173.97435884;4860.12820645;2004.48717477;229.99999153;-0.00000896;3747.94871691;4366.28205156;4796.92307811;4307.30769245;3908.46153777;4302.17948732;4142.43589723;4369.10256438
4369.87179515;4105.76923050;4595.00000077;4176.28205115;4829.61538587;2003.07691836;229.99999153;-0.00000896;3777.69230672;4336.53846175;4795.64102683;4306.15384630;3841.66666584;4302.82051296;4142.05128185;4369.10256438
4398.71794907;4104.10256383;4368.33333362;4201.15384609;4858.97436030;2036.66666201;229.99999153;-0.00000896;3746.92307588;4303.33333348;4962.17948871;4306.41025655;3708.84615274;4300.76923091;4141.15384595;4402.05128240
4405.89743625;4103.07692280;4763.07692419;4201.79487173;4992.82051442;2042.82050817;229.99999153;-0.00000896;3682.56410139;4303.20512835;4924.61538608;4304.23076937;3876.92307616;4302.69230784;4141.41025621;4402.05128240
4437.69230811;4104.23076896;4792.30769349;4175.25641012;4727.05128310;2040.51281586;229.99999153;-0.00000896;3646.92307568;4303.20512835;4471.28205177;4303.33333348;3945.89743528;4301.66666681;4141.28205108;4434.74359016
4501.15384671;4104.23076896;4858.84615517;4169.48717935;4864.35897568;2042.05127740;229.99999153;-0.00000896;3645.12820388;4241.66666667;4502.05128261;4305.38461553;4008.58974311;4301.15384630;4140.76923056;4500.38461594
4566.02564172;4103.71794844;4827.43589869;4137.69230749;4764.87179599;2072.69230311;229.99999153;-0.00000896;3678.84615267;4208.33333327;4990.00000160;4306.79487194;3905.76923008;4301.15384630;4139.61538441;4566.02564172
4629.35897520;4106.79487152;4370.51282079;4105.38461511;4862.56410389;2101.66666215;229.99999153;-0.00000896;3743.07692204;4174.48717935;4828.58974484;4333.71794893;3714.35897325;4301.15384630;4139.48717928;4631.66666750
4663.97435988;4138.33333313;4470.25641075;4073.84615350;4760.64102676;2103.07691856;229.99999153;-0.00000896;3807.69230679;4141.41025621;4832.69230895;4307.56410271;3583.71794733;4300.12820527;4138.84615364;4664.48718039
4693.97435995;4169.87179474;4633.58974443;4072.43589709;4862.82051414;2101.02563651;229.99999153;-0.00000896;3878.58974283;4138.20512800;4696.92307790;4332.30769252;3317.56410062;4300.00000014;4138.07692287;4697.30769328
4668.07692398;4203.07692301;4533.97435960;4075.89743555;4895.64102703;2037.05127740;229.99999153;-0.00000896;3940.51281989;4136.28205108;4465.89743639;4334.35897457;3348.58974172;4301.66666681;4137.94871774;4664.48718039
4665.76923168;4207.17948711;4299.61538476;4108.20512793;4924.35897582;1977.17948239;7.56409360;-0.00000896;3977.30769176;4137.05128185;4208.46153840;4305.51282066;3448.33333167;4300.64102578;4137.30769210;4664.48718039
4661.41025732;4235.76923077;4335.00000021;4143.07692287;4826.66666792;1977.30768752;-0.00000896;-0.00000896;4011.02564054;4136.79487159;4726.15384720;4305.89743604;3486.41025482;4274.74358982;4137.05128185;4664.48718039
4629.35897520;4239.23076923;4108.84615357;4173.97435884;4832.30769356;2002.17948246;229.99999153;-0.00000896;4038.84615343;4110.25640998;4431.15384657;4332.82051303;3847.69230686;4300.00000014;4137.17948697;4631.66666750
4595.89743667;4268.07692315;4208.84615378;4207.30769224;4798.84615503;1974.99999521;-0.00000896;-0.00000896;4071.79487145;4140.25641005;4733.20512925;4333.46153867;3742.82051178;4273.97435905;4136.66666646;4598.97435974
4563.07692378;4268.46153853;4238.84615385;4237.43589744;4895.76923216;1975.76922598;-0.00000896;-0.00000896;4071.28205094;4141.92307672;4500.51282107;4305.25641040;3945.76923015;4300.76923091;4136.66666646;4566.15384685
4502.43589800;4269.10256418;4497.05128261;4267.05128212;4898.20512960;1973.20512341;-0.00000896;-0.00000896;4072.17948684;4136.02564082;4860.76923209;4332.94871816;3912.30769162;4300.25641040;4136.66666646;4500.51282107
4465.89743639;4269.48717956;4530.25641089;4273.07692315;4859.74359107;1973.58973880;-0.00000896;-0.00000896;4070.76923043;4141.41025621;4895.25641165;4332.43589765;3777.17948621;4300.00000014;4136.79487159;4467.69230818
4402.82051317;4269.48717956;4268.97435905;4301.41025655;4799.48718067;1976.15384136;-0.00000896;-0.00000896;4042.69230728;4142.82051262;4631.15384699;4307.05128219;4173.97435884;4302.05128219;4137.05128185;4402.05128240
4365.25641054;4269.87179495;4601.79487256;4302.69230784;4727.43589848;2006.66666195;-0.00000896;-0.00000896;4039.87179446;4140.12820492;4791.92307811;4307.56410271;4302.69230784;4300.25641040;4135.89743569;4369.23076951
4302.17948732;4271.79487187;4306.53846168;4304.35897450;5028.71795039;2008.84614912;-0.00000896;-0.00000896;4037.17948677;4142.17948697;4697.43589841;4305.76923091;4435.89743632;4300.12820527;4136.15384595;4303.58974373
4240.76923077;4273.58974366;4174.87179474;4304.74358989;4929.48718095;2009.35896964;-0.00000896;-0.00000896;4007.82051234;4140.25641005;4694.74359072;4307.30769245;4234.61538462;4301.28205142;4136.53846133;4237.94871795
4205.89743583;4299.87179501;4202.43589737;4307.05128219;4926.41025787;2007.69230297;-0.00000896;-0.00000896;3975.51281996;4170.89743576;4499.48718005;4305.76923091;4370.12820541;4300.89743604;4110.25640998;4205.12820506
4172.43589730;4302.05128219;4234.48717949;4332.43589765;4959.74359128;2036.92307227;-0.00000896;-0.00000896;3912.43589674;4236.28205129;4732.43589848;4307.43589758;4138.58974339;4300.25641040;4136.79487159;4172.43589730
4168.97435884;4305.38461553;4202.94871788;4333.97435919;4825.51282177;2035.76922612;-0.00000896;-0.00000896;3840.25640943;4240.76923077;4338.20512842;4305.89743604;4467.30769280;4299.87179501;4137.82051262;4172.43589730
4172.69230756;4304.48717963;4168.97435884;4333.20512842;4862.56410389;2004.10255938;-0.00000896;-0.00000896;3776.66666570;4271.92307700;4924.87179633;4306.53846168;4172.69230756;4300.00000014;4137.56410236;4172.43589730
4203.46153840;4302.05128219;3711.79487069;4332.82051303;4830.89743715;1975.38461059;-0.00000896;-0.00000896;3744.35897332;4302.17948732;4726.15384720;4333.97435919;4205.89743583;4300.64102578;4136.15384595;4205.25641019
4207.69230763;4300.76923091;3911.15384546;4333.97435919;4957.17948871;1977.30768752;-0.00000896;-0.00000896;3743.71794768;4305.25641040;4467.43589793;4307.30769245;4240.00000000;4300.76923091;4137.69230749;4205.25641019
4237.94871795;4273.84615392;3519.74358822;4334.87179508;4861.28205261;2006.28204656;-0.00000896;-0.00000896;3743.07692204;4303.97435912;4598.58974436;4306.41025655;4333.46153867;4303.20512835;4138.58974339;4238.07692308
4241.79487180;4273.07692315;3978.97435842;4333.84615406;4995.89743750;2039.74358509;-0.00000896;-0.00000896;3744.23076819;4305.25641040;4563.84615454;4305.12820527;4335.00000021;4302.56410271;4110.25640998;4238.07692308
4269.10256418;4300.00000014;4207.56410250;4307.30769245;4896.28205268;2038.97435432;-0.00000896;-0.00000896;3744.74358871;4304.87179501;4760.12820624;4332.94871816;4303.07692322;4302.17948732;4138.33333313;4270.76923084
4269.48717956;4301.28205142;4271.53846161;4305.51282066;4956.28205281;2007.82050810;-0.00000896;-0.00000896;3742.17948614;4337.17948739;4829.48718074;4332.94871816;4267.69230777;4302.43589758;4138.84615364;4270.76923084
4269.48717956;4301.41025655;4038.71794830;4302.82051296;4893.20512960;2005.25640554;-0.00000896;-0.00000896;3714.10256299;4366.41025669;4433.33333375;4304.87179501;4202.56410250;4303.20512835;4138.58974339;4270.76923084
4270.51282059;4300.38461553;4241.28205129;4301.41025655;4733.20512925;2005.64102092;-0.00000896;-0.00000896;3711.15384505;4366.28205156;4733.84615489;4307.43589758;4208.46153840;4302.43589758;4142.05128185;4270.76923084
4272.69230777;4299.74358989;4141.02564082;4272.94871802;4860.12820645;1975.51281572;-0.00000896;-0.00000896;3710.51281940;4367.56410285;4857.82051414;4305.00000014;4069.74358940;4302.30769245;4138.97435877;4270.76923084
4271.92307700;4273.33333341;4169.48717935;4270.89743597;4926.66666813;1971.28204649;-0.00000896;-0.00000896;3712.69230658;4369.87179515;4304.74358989;4302.17948732;4500.51282107;4301.66666681;4138.07692287;4270.76923084
4271.79487187;4269.48717956;4107.94871767;4267.30769238;4798.33333452;2004.99999528;-0.00000896;-0.00000896;3714.35897325;4369.48717977;5023.97436065;4304.74358989;3939.99999938;4303.20512835;4138.97435877;4270.76923084
4269.61538469;4270.38461546;4142.69230749;4238.46153847;4928.71795018;2009.35896964;-0.00000896;-0.00000896;3715.89743479;4339.61538483;4365.38461567;4305.89743604;4404.48717984;4302.17948732;4139.48717928;4270.76923084
4269.48717956;4269.23076930;4268.20512828;4237.56410257;4859.87179620;2007.82050810;-0.00000896;-0.00000896;3747.05128101;4339.10256431;4830.51282177;4307.17948732;4266.92307700;4302.82051296;4139.48717928;4270.76923084
4241.28205129;4267.17948725;4432.17948760;4235.38461539;4765.89743701;2007.94871323;229.99999153;-0.00000896;3746.28205024;4338.07692329;4597.94871872;4305.25641040;4300.76923091;4302.94871809;4139.48717928;4237.94871795
4238.07692308;4240.76923077;4173.07692294;4208.07692301;4890.25641165;2005.12820041;229.99999153;-0.00000896;3749.10256306;4333.46153867;4765.12820624;4305.38461553;4103.84615357;4303.97435912;4137.82051262;4237.94871795
4233.84615385;4236.92307693;4236.92307693;4202.69230763;4798.46153965;2004.99999528;229.99999153;-0.00000896;3748.58974255;4366.41025669;4300.51282066;4307.43589758;4403.97435933;4301.92307707;4139.99999980;4237.94871795
4203.07692301;4234.10256411;4139.10256390;4170.38461525;4924.10256557;2008.84614912;229.99999153;-0.00000896;3742.82051178;4340.38461560;4530.25641089;4305.25641040;4235.51282052;4304.61538476;4139.99999980;4204.99999993
4175.12820499;4207.69230763;4137.69230749;4137.82051262;4897.82051421;2039.23076458;1.41024745;-0.00000896;3713.97435787;4338.07692329;4433.58974401;4307.30769245;4371.15384644;4300.64102578;4139.87179467;4172.17948704
4173.46153833;4208.07692301;4208.20512814;4110.12820485;4858.97436030;1975.76922598;2.30768335;-0.00000896;3744.23076819;4334.35897457;4988.97436058;4303.84615399;4171.41025628;4305.38461553;4139.48717928;4172.17948704
4143.46153826;4204.61538455;3612.82051150;4107.30769203;4864.74359107;1975.76922598;229.99999153;-0.00000896;3745.89743486;4368.58974387;4400.89743625;4306.41025655;4271.92307700;4301.66666681;4139.48717928;4139.35897415
4140.76923056;4202.17948711;3216.79486964;4109.48717921;4858.07692440;2006.79486707;2.30768335;-0.00000896;3777.82051185;4337.43589765;4402.30769266;4305.00000014;4372.94871823;4303.58974373;4136.79487159;4139.35897415
4137.30769210;4203.97435891;3547.43589598;4136.92307672;4864.48718081;2035.51281586;229.99999153;-0.00000896;3808.84615295;4307.56410271;4500.00000056;4332.30769252;4334.23076944;4302.30769245;4140.12820492;4139.35897415
4108.46153819;4205.38461532;3479.35897276;4109.99999973;4767.05128317;2036.66666201;2.30768335;-0.00000896;3812.05128115;4336.41025662;4435.89743632;4307.05128219;4202.05128199;4301.66666681;4139.87179467;4106.53846126
4106.53846126;4240.76923077;3383.71794692;4106.79487152;4990.12820673;2104.48717497;229.99999153;-0.00000896;3841.79487096;4337.94871816;4630.25641109;4307.43589758;4368.71794900;4273.58974366;4139.35897415;4106.53846126
4104.61538434;4238.97435898;3349.74358787;4104.48717921;4890.25641165;2073.58973901;2.30768335;-0.00000896;3846.02564020;4368.58974387;4469.87179536;4305.38461553;4206.92307686;4301.02564117;4139.23076903;4106.53846126
4104.99999973;4268.46153853;3285.25640825;4103.58974332;4959.87179640;2041.66666201;229.99999153;-0.00000896;3846.79487096;4403.46153881;4566.02564172;4305.51282066;4141.53846133;4300.12820527;4142.05128185;4106.53846126
4108.07692280;4270.89743597;3479.48717789;4106.66666639;4928.20512967;2034.87179022;2.30768335;-0.00000896;3846.02564020;4405.76923112;4498.46153902;4306.79487194;4136.41025621;4301.92307707;4140.76923056;4106.53846126
4137.05128185;4270.89743597;3551.15384470;4138.20512800;4860.12820645;2002.94871323;229.99999153;-0.00000896;3873.58974283;4431.15384657;4763.71794983;4334.23076944;4040.12820472;4299.48717963;4141.28205108;4139.35897415
4168.58974345;4268.71794879;3381.28204948;4171.15384602;5023.58974526;1971.41025162;2.30768335;-0.00000896;3846.92307609;4434.10256452;4532.17948781;4332.56410278;3971.66666611;4300.76923091;4140.89743569;4172.17948704
4175.89743576;4240.76923077;3812.94871705;4206.02564096;4928.33333480;1970.51281572;229.99999153;-0.00000896;3848.07692225;4464.10256459;4890.38461678;4332.43589765;4040.89743548;4299.74358989;4141.02564082;4172.30769217
4206.79487173;4240.00000000;4107.82051255;4238.46153847;4956.15384769;1977.30768752;2.30768335;-0.00000896;3872.94871719;4435.12820555;4435.76923119;4332.56410278;4239.74358975;4301.79487194;4141.28205108;4205.12820506
4238.58974359;4240.38461539;4038.58974318;4271.15384623;4865.25641158;2036.79486714;229.99999153;-0.00000896;3872.82051206;4405.64102599;5022.05128372;4306.79487194;4135.51282031;4300.51282066;4139.48717928;4237.94871795
4269.10256418;4270.51282059;4434.74359016;4305.25641040;4930.38461685;2005.12820041;2.30768335;-0.00000896;3879.99999924;4403.58974394;4631.15384699;4305.38461553;4238.97435898;4300.00000014;4141.41025621;4270.76923084
4274.61538469;4272.69230777;4008.33333285;4334.87179508;4831.15384741;1974.87179008;229.99999153;-0.00000896;3912.82051213;4401.41025676;4828.33333459;4307.43589758;4038.58974318;4301.66666681;4141.79487159;4270.89743597
4274.23076930;4299.48717963;4568.07692378;4338.07692329;4895.76923216;2007.82050810;2.30768335;-0.00000896;3939.87179425;4400.64102599;4399.87179522;4307.43589758;4071.41025607;4301.79487194;4141.53846133;4270.89743597
4273.97435905;4274.23076930;4500.89743646;4337.05128226;4795.38461657;2034.87179022;229.99999153;-0.00000896;3939.87179425;4432.69230811;4601.41025718;4307.56410271;4073.58974325;4300.76923091;4168.84615371;4270.89743597
4273.46153853;4273.97435905;4665.76923168;4333.97435919;4730.89743694;2035.38461073;2.30768335;-0.00000896;3912.82051213;4433.58974401;4957.94871948;4305.12820527;4235.00000000;4301.28205142;4168.97435884;4270.89743597
4271.53846161;4274.48717956;4927.94871941;4334.61538483;4765.51282163;2038.71794407;229.99999153;-0.00000896;3907.94871726;4435.25641068;4173.20512807;4332.82051303;4071.53846119;4302.43589758;4142.05128185;4270.89743597
4270.00000007;4302.56410271;4767.05128317;4337.56410278;4832.56410382;2071.28204670;2.30768335;-0.00000896;3906.66666598;4432.69230811;4697.56410354;4333.20512842;3877.56410180;4301.41025655;4142.30769210;4270.89743597
4268.20512828;4306.92307707;4633.97435981;4365.76923105;4860.00000132;2136.02563658;229.99999153;-0.00000896;3905.76923008;4434.23076965;4335.51282073;4307.17948732;4077.05128171;4301.79487194;4142.43589723;4270.89743597
4267.05128212;4339.74358996;4860.89743722;4367.82051310;4793.71794990;2102.43589292;2.30768335;-0.00000896;3880.12820437;4431.79487222;4792.56410375;4304.74358989;4240.51282052;4301.53846168;4169.61538448;4270.89743597
4237.69230770;4368.46153874;4567.69230839;4338.33333355;4891.15384755;2006.28204656;229.99999153;-0.00000896;3878.46153770;4438.46153888;4667.17948809;4304.23076937;4074.10256376;4302.17948732;4142.82051262;4238.07692308
4207.43589737;4340.25641047;4534.35897499;4333.46153867;4668.58974450;1874.61537962;2.30768335;-0.00000896;3847.43589661;4501.41025697;4731.53846258;4306.66666681;4142.56410236;4302.05128219;4143.20512800;4205.25641019
4176.02564089;4305.76923091;4273.71794879;4333.33333355;4857.94871927;1811.92307178;229.99999153;-0.00000896;3807.56410166;4536.02564165;4536.66666730;4333.58974380;4302.94871809;4303.20512835;4143.07692287;4172.43589730
4169.61538448;4270.25641033;4102.82051255;4305.38461553;4826.79487305;1944.35896950;2.30768335;-0.00000896;3715.12820402;4534.23076986;4272.17948725;4307.05128219;4240.25641026;4302.05128219;4143.20512800;4172.30769217
4142.05128185;4239.87179488;4301.79487194;4241.15384616;4956.79487333;2006.02563630;229.99999153;-0.00000896;3584.61538323;4568.33333403;4569.35897506;4304.61538476;4270.89743597;4304.74358989;4168.33333320;4139.48717928
4143.20512800;4236.92307693;4110.25640998;4171.15384602;4929.10256557;2002.56409784;-0.00000896;-0.00000896;3517.56410104;4569.10256480;4761.92307804;4333.71794893;4170.89743576;4302.69230784;4168.58974345;4139.35897415
4171.53846140;4206.28205122;4436.66666709;4105.25640998;4794.10256529;2007.94871323;-0.00000896;-0.00000896;3516.41025489;4565.51282121;4697.69230867;4306.92307707;4566.53846224;4303.97435912;4168.97435884;4172.17948704
4201.28205122;4205.51282045;3812.30769141;4044.99999959;4761.02564214;2037.94871330;4.35896540;-0.00000896;3545.51281906;4566.02564172;4700.00000098;4334.48717970;4234.48717949;4301.66666681;4168.58974345;4204.87179481
4204.61538455;4205.64102558;3317.82051088;4041.02564061;4763.33333445;2070.89743132;229.99999153;-0.00000896;3552.05128060;4566.79487249;4537.17948781;4305.38461553;4368.33333362;4302.05128219;4168.84615371;4204.87179481
4235.89743590;4206.79487173;3416.79487006;4038.07692266;4829.10256536;2102.94871344;229.99999153;-0.00000896;3617.69230638;4535.76923140;4500.64102620;4306.53846168;4076.41025607;4301.15384630;4168.46153833;4237.69230770
4238.71794872;4208.97435891;3513.46153694;4040.12820472;4992.30769391;2072.69230311;229.99999153;-0.00000896;3683.71794754;4562.05128275;4499.48718005;4306.28205142;4339.74358996;4300.38461553;4168.84615371;4237.69230770
4240.89743590;4207.94871788;3675.89743472;4040.76923036;4793.97436016;2105.64102113;229.99999153;-0.00000896;3748.46153742;4562.05128275;5224.35897645;4332.69230790;4109.61538434;4274.23076930;4168.33333320;4237.69230770
4267.30769238;4235.00000000;4332.94871816;4070.64102530;4730.89743694;2104.35896985;-0.00000896;-0.00000896;3813.46153756;4535.00000063;4529.74359037;4306.79487194;4203.84615378;4301.28205142;4168.71794858;4270.64102571
4266.66666674;4236.15384616;4108.46153819;4103.46153819;4729.74359079;2102.94871344;-0.00000896;-0.00000896;3878.97435821;4562.69230839;4865.38461671;4306.15384630;4141.28205108;4301.15384630;4168.58974345;4270.64102571
4240.12820513;4238.20512821;4339.48717970;4138.07692287;4890.38461678;2073.97435439;-0.00000896;-0.00000896;3938.46153784;4563.97435967;4661.79487270;4334.48717970;4203.58974352;4273.58974366;4168.58974345;4237.82051282
4237.69230770;4239.48717949;4172.69230756;4173.33333320;4795.89743708;2074.61538003;-0.00000896;-0.00000896;3971.79487124;4535.12820576;4666.41025732;4335.00000021;4306.15384630;4300.38461553;4168.20512807;4237.82051282
4236.79487180;4240.51282052;4174.23076910;4206.79487173;4766.79487291;2040.64102099;-0.00000896;-0.00000896;4005.12820465;4568.33333403;4895.00000139;4332.56410278;4071.02564068;4300.00000014;4168.46153833;4237.94871795
4209.10256404;4241.66666667;4303.58974373;4237.05128206;4797.69230888;2036.15384150;-0.00000896;-0.00000896;4011.79487131;4565.12820583;4701.02564200;4307.17948732;3880.89743514;4299.61538476;4170.51282038;4205.12820506
4206.15384609;4241.66666667;4435.25641068;4273.20512828;4700.00000098;1977.30768752;-0.00000896;-0.00000896;4041.66666625;4596.41025718;4728.20512925;4333.20512842;4135.38461518;4299.48717963;4169.23076910;4205.12820506
4203.58974352;4239.35897436;4632.56410340;4302.30769245;4996.53846314;1944.10255924;-0.00000896;-0.00000896;4037.56410215;4596.41025718;4695.38461636;4306.41025655;3944.87179425;4301.53846168;4169.10256397;4205.12820506
4202.56410250;4208.84615378;4430.89743632;4303.20512835;4730.89743694;1941.92307206;-0.00000896;-0.00000896;4004.10256362;4629.74359058;4763.97436009;4305.64102578;4175.76923063;4300.89743604;4169.23076910;4205.12820506
4202.17948711;4206.53846147;4531.28205191;4305.00000014;4861.41025773;1944.10255924;-0.00000896;-0.00000896;3944.99999938;4632.30769315;4766.02564214;4333.84615406;3716.53846043;4300.76923091;4169.35897422;4205.12820506
4204.87179481;4204.99999993;4633.97435981;4304.48717963;4731.28205233;1969.99999521;-0.00000896;-0.00000896;3910.76923008;4631.66666750;4628.97435981;4333.07692329;4073.33333299;4299.61538476;4168.97435884;4205.12820506
4235.64102564;4201.28205122;4668.33333424;4304.10256425;4764.74359086;1944.10255924;-0.00000896;-0.00000896;3879.87179411;4601.15384692;4630.00000084;4333.84615406;4040.51282010;4274.23076930;4169.23076910;4237.94871795
4239.74358975;4176.28205115;4109.74358947;4303.71794886;4827.56410382;1976.92307213;-0.00000896;-0.00000896;3878.84615309;4633.46153930;4338.71794893;4332.30769252;4039.35897395;4299.74358989;4169.23076910;4237.94871795
4268.71794879;4176.15384602;4536.79487242;4302.43589758;4827.94871920;2002.17948246;-0.00000896;-0.00000896;3879.10256334;4599.23077000;4831.92307818;4334.48717970;4007.05128157;4301.53846168;4143.33333313;4270.76923084
4270.89743597;4174.35897422;4136.66666646;4302.69230784;4962.56410410;1971.79486700;-0.00000896;-0.00000896;3878.71794796;4600.64102641;4305.76923091;4332.69230790;4004.87179439;4301.53846168;4169.10256397;4270.76923084
4271.02564110;4173.58974345;4241.28205129;4301.41025655;4664.23077014;2004.48717477;-0.00000896;-0.00000896;3876.92307616;4597.30769308;4829.35897561;4333.07692329;3909.74358905;4302.17948732;4168.84615371;4270.76923084
4269.48717956;4172.82051269;4661.66666757;4302.43589758;4994.10256570;2007.43589271;-0.00000896;-0.00000896;3873.84615309;4597.56410333;4569.35897506;4332.30769252;3814.48717859;4300.76923091;4169.48717935;4270.76923084
4268.84615392;4171.79487166;4503.46153902;4301.92307707;4765.25641137;2036.66666201;-0.00000896;-0.00000896;3844.35897353;4596.53846231;4730.89743694;4332.43589765;3943.33333271;4301.66666681;4168.71794858;4270.76923084
4240.38461539;4170.25641012;4201.28205122;4302.17948732;4929.48718095;2036.92307227;-0.00000896;-0.00000896;3812.94871705;4567.43589813;4698.97435995;4306.15384630;3973.20512765;4302.05128219;4169.74358961;4237.94871795
4239.61538462;4168.33333320;4140.51282031;4300.76923091;4825.76923202;2040.12820048;-0.00000896;-0.00000896;3807.30769141;4569.23076993;4268.07692315;4305.51282066;4367.17948746;4301.92307707;4168.46153833;4237.94871795
4237.17948718;4141.28205108;4303.46153860;4272.05128212;4862.30769363;2071.41025183;-0.00000896;-0.00000896;3777.82051185;4564.10256480;4696.66666764;4305.64102578;4104.87179460;4302.17948732;4168.84615371;4237.94871795
4234.74358975;4141.28205108;4205.76923070;4267.69230777;4826.92307818;2070.51281593;-0.00000896;-0.00000896;3749.10256306;4565.25641096;4463.58974408;4305.89743604;4204.87179481;4301.15384630;4168.33333320;4237.94871795
4207.30769224;4141.92307672;4372.69230797;4241.92307693;4662.82051373;2039.10255945;-0.00000896;-0.00000896;3742.82051178;4536.15384678;4701.41025739;4305.89743604;4238.07692308;4301.79487194;4170.76923063;4205.12820506
4205.25641019;4140.76923056;4172.94871781;4237.94871795;4766.41025753;2035.89743125;-0.00000896;-0.00000896;3712.94871684;4535.25641089;4568.07692378;4306.02564117;4207.30769224;4302.82051296;4168.20512807;4205.12820506
4203.07692301;4138.71794851;4007.17948670;4236.02564103;4894.23077062;2037.94871330;229.99999153;-0.00000896;3713.07692197;4536.02564165;4438.33333375;4306.15384630;4302.30769245;4301.92307707;4168.97435884;4205.12820506
4202.17948711;4138.20512800;4306.41025655;4234.74358975;4961.66666820;2068.84614926;-0.00000896;-0.00000896;3711.53846043;4530.00000063;4530.89743653;4307.56410271;4176.28205115;4303.46153860;4168.20512807;4205.12820506
4201.53846147;4138.07692287;4139.87179467;4207.56410250;4760.12820624;2069.10255952;-0.00000896;-0.00000896;3713.58974248;4531.02564165;4864.61538594;4307.30769245;4110.51282024;4301.41025655;4168.58974345;4205.12820506
4201.15384609;4138.97435877;3907.05128136;4206.92307686;4956.79487333;2070.12820055;-0.00000896;-0.00000896;3714.10256299;4502.17948774;4431.41025683;4305.51282066;4402.05128240;4302.94871809;4143.20512800;4205.12820506
4175.38461525;4140.12820492;4172.43589730;4204.61538455;4859.35897568;2071.02563644;229.99999153;-0.00000896;3713.71794761;4497.43589800;4568.71794942;4306.92307707;4172.30769217;4302.30769245;4143.33333313;4172.30769217
4174.87179474;4142.17948697;3972.30769176;4203.97435891;4824.87179613;2042.56409791;229.99999153;-0.00000896;3742.30769127;4470.51282100;4863.20512953;4307.30769245;4201.92307686;4302.43589758;4169.10256397;4172.30769217
4174.87179474;4168.84615371;4337.05128226;4205.12820506;4926.53846300;2068.84614926;229.99999153;-0.00000896;3748.20512717;4498.97435953;4531.79487242;4332.94871816;4171.15384602;4302.17948732;4143.07692287;4172.30769217
4173.84615371;4169.99999986;4009.99999952;4234.23076923;4963.97436051;2071.53845696;229.99999153;-0.00000896;3779.99999903;4469.10256459;4465.12820562;4306.41025655;4175.89743576;4301.92307707;4143.33333313;4172.30769217
4171.79487166;4172.30769217;4207.17948711;4241.79487180;4831.92307818;2068.20512362;229.99999153;-0.00000896;3840.76922994;4468.58974408;4792.30769349;4332.94871816;3908.20512751;4302.69230784;4142.56410236;4172.30769217
4143.33333313;4174.10256397;4204.99999993;4300.38461553;4858.20512953;2038.20512355;229.99999153;-0.00000896;3844.23076840;4467.56410305;4136.53846133;4333.07692329;4333.71794893;4301.53846168;4169.61538448;4139.48717928
4140.51282031;4172.56410243;4234.74358975;4301.41025655;4864.74359107;2034.99999535;229.99999153;-0.00000896;3844.61538379;4471.41025690;4799.10256529;4306.79487194;4070.25640991;4302.17948732;4142.94871774;4139.48717928
4137.30769210;4172.30769217;4694.61538559;4302.17948732;4893.97436037;2035.89743125;229.99999153;-0.00000896;3846.02564020;4471.41025690;4633.07692391;4305.64102578;4076.53846119;4302.17948732;4141.66666646;4139.48717928
4109.23076896;4171.15384602;4567.69230839;4302.43589758;4832.30769356;2008.84614912;229.99999153;-0.00000896;3841.53846071;4500.51282107;4767.05128317;4332.56410278;4205.12820506;4301.28205142;4142.82051262;4106.66666639
4107.05128178;4170.76923063;4464.61538511;4301.41025655;4826.79487305;2007.30768759;229.99999153;-0.00000896;3812.56410166;4497.82051338;4795.76923195;4306.28205142;4136.66666646;4301.15384630;4143.07692287;4106.66666639
4105.76923050;4169.35897422;4201.02564096;4274.10256418;4859.74359107;2006.79486707;229.99999153;-0.00000896;3777.94871698;4504.35897492;4108.71794844;4332.69230790;4173.33333320;4302.94871809;4143.20512800;4106.66666639
4107.56410229;4142.56410236;4367.43589772;4271.53846161;4894.87179627;2007.17948246;229.99999153;-0.00000896;3743.71794768;4499.61538518;4534.10256473;4333.33333355;4238.71794872;4302.94871809;4142.82051262;4106.66666639
4135.38461518;4141.79487159;4241.41025641;4239.61538462;4959.35897589;2004.74358502;229.99999153;-0.00000896;3713.71794761;4500.51282107;4337.43589765;4306.79487194;4105.12820485;4301.41025655;4141.53846133;4139.48717928
4138.97435877;4142.17948697;4237.82051282;4236.41025641;4896.15384755;2007.30768759;229.99999153;-0.00000896;3711.41025530;4531.28205191;4496.92307748;4333.33333355;4137.94871774;4301.41025655;4143.46153826;4139.48717928
4169.48717935;4140.51282031;4006.92307644;4208.97435891;4993.20512981;2008.97435425;229.99999153;-0.00000896;3711.28205017;4501.15384671;4564.61538531;4307.30769245;4108.97435870;4301.79487194;4143.46153826;4172.30769217
4174.10256397;4141.15384595;4267.94871802;4207.43589737;4730.64102669;2038.20512355;229.99999153;-0.00000896;3711.02563992;4501.02564159;4431.66666709;4305.51282066;4072.43589709;4302.69230784;4142.94871774;4172.30769217
4202.69230763;4143.20512800;4172.17948704;4206.15384609;4895.76923216;2042.30768766;229.99999153;-0.00000896;3715.76922966;4467.82051331;4726.92307797;4303.84615399;4107.05128178;4301.66666681;4142.82051262;4205.12820506
4204.74358968;4170.12820499;4398.97435933;4204.48717942;4892.05128344;2039.10255945;229.99999153;-0.00000896;3742.82051178;4467.82051331;4468.71794921;4307.05128219;4135.89743569;4301.02564117;4142.56410236;4205.12820506
4208.07692301;4170.76923063;4169.10256397;4203.33333327;4826.92307818;2042.69230304;229.99999153;-0.00000896;3748.20512717;4470.25641075;4727.43589848;4304.48717963;3944.74358912;4302.69230784;4142.69230749;4205.12820506
4206.53846147;4172.43589730;4334.48717970;4203.71794865;4890.76923216;2068.84614926;229.99999153;-0.00000896;3775.64102467;4468.58974408;4403.97435933;4305.51282066;4237.82051282;4302.82051296;4142.94871774;4205.12820506
4205.25641019;4173.71794858;4077.69230735;4203.20512814;4797.43589862;2068.84614926;229.99999153;-0.00000896;3775.89743493;4471.02564152;4306.02564117;4305.64102578;4171.79487166;4302.05128219;4141.53846133;4205.12820506
4204.10256404;4173.71794858;4303.20512835;4203.07692301;4858.84615517;2042.05127740;229.99999153;-0.00000896;3777.56410160;4465.64102613;4827.30769356;4306.28205142;4069.99999966;4302.43589758;4142.69230749;4205.12820506
4203.71794865;4175.51282038;4208.97435891;4202.30769224;4956.53846307;2036.15384150;229.99999153;-0.00000896;3779.61538365;4469.35897485;4300.38461553;4332.30769252;4372.43589772;4303.20512835;4142.30769210;4205.12820506
4202.69230763;4174.48717935;4042.56410215;4202.56410250;4864.35897568;2009.23076451;229.99999153;-0.00000896;3779.10256313;4465.25641075;4959.23077076;4307.56410271;3875.38461462;4301.66666681;4168.84615371;4205.12820506
4202.82051275;4174.48717935;4202.30769224;4201.28205122;4793.46153965;2042.05127740;229.99999153;-0.00000896;3777.17948621;4468.58974408;4306.79487194;4334.10256431;4299.87179501;4300.76923091;4142.43589723;4205.12820506
4201.41025634;4201.02564096;4073.33333299;4202.69230763;4765.64102676;2071.79486721;229.99999153;-0.00000896;3780.51281954;4463.97435946;4464.10256459;4307.43589758;4109.35897408;4300.00000014;4168.84615371;4205.12820506
4176.28205115;4204.61538455;4270.64102571;4207.17948711;4956.02564256;2075.51281593;229.99999153;-0.00000896;3782.43589647;4463.84615434;4337.69230790;4307.17948732;4268.20512828;4300.64102578;4142.43589723;4172.30769217
4173.97435884;4207.94871788;3938.58974297;4236.79487180;4825.89743715;2039.23076458;229.99999153;-0.00000896;3810.51281961;4436.79487222;4566.28205198;4306.92307707;3977.94871740;4300.76923091;4142.56410236;4172.30769217
4172.69230756;4234.87179488;4170.25641012;4236.92307693;4923.33333480;2038.20512355;229.99999153;-0.00000896;3812.43589654;4467.82051331;4694.61538559;4306.28205142;4171.02564089;4302.56410271;4142.56410236;4172.30769217
4170.51282038;4235.76923077;4109.61538434;4237.56410257;4959.48718102;2039.48717484;229.99999153;-0.00000896;3840.76922994;4466.15384664;4300.38461553;4306.02564117;4206.92307686;4301.53846168;4169.48717935;4172.30769217
4141.92307672;4237.56410257;4371.66666695;4238.58974359;4892.17948857;2038.58973894;229.99999153;-0.00000896;3841.92307609;4467.30769280;4727.56410361;4332.43589765;4073.07692273;4301.79487194;4142.94871774;4139.48717928
4140.51282031;4237.05128206;4207.05128199;4239.35897436;4831.92307818;2038.58973894;229.99999153;-0.00000896;3842.82051199;4468.97435946;4563.20512890;4306.79487194;3941.15384553;4301.79487194;4143.33333313;4139.48717928
4135.64102544;4238.20512821;4432.94871837;4240.38461539;4832.43589869;2006.92307220;229.99999153;-0.00000896;3814.23076833;4498.58974415;4598.07692385;4305.25641040;4142.94871774;4301.41025655;4168.20512807;4139.48717928
4110.38461511;4234.61538462;4201.92307686;4237.69230770;4726.92307797;2003.97435425;-0.00000896;-0.00000896;3813.97435807;4500.64102620;4534.35897499;4306.66666681;4137.05128185;4303.07692322;4169.99999986;4106.66666639
4109.74358947;4209.10256404;4271.79487187;4237.69230770;4832.17948843;2002.82050810;-0.00000896;-0.00000896;3811.92307602;4502.43589800;4340.38461560;4306.28205142;4174.35897422;4302.43589758;4168.46153833;4106.66666639
4110.12820485;4205.76923070;4136.15384595;4236.28205129;4924.87179633;2008.33332861;229.99999153;-0.00000896;3808.33333243;4534.61538524;4695.64102662;4305.76923091;4173.20512807;4300.76923091;4168.58974345;4106.66666639
4135.89743569;4204.87179481;4272.56410264;4237.94871795;4961.79487333;2004.23076451;-0.00000896;-0.00000896;3780.89743493;4531.53846217;4237.30769231;4306.02564117;4433.97435940;4300.00000014;4168.84615371;4139.48717928
4138.33333313;4203.97435891;4009.10256362;4238.97435898;4861.92307825;2007.82050810;-0.00000896;-0.00000896;3778.58974262;4533.07692371;4727.82051387;4306.15384630;3942.05128143;4302.82051296;4168.33333320;4139.48717928
4141.92307672;4202.17948711;4301.53846168;4238.97435898;4762.82051394;2036.41025176;-0.00000896;-0.00000896;3778.58974262;4533.07692371;4404.74359009;4305.12820527;4332.43589765;4302.05128219;4168.84615371;4139.48717928
4168.97435884;4203.58974352;4107.56410229;4238.20512821;4890.76923216;2036.92307227;-0.00000896;-0.00000896;3778.07692211;4534.48718012;4895.25641165;4304.61538476;4104.10256383;4301.15384630;4168.58974345;4172.30769217
4173.46153833;4203.20512814;4402.17948753;4239.48717949;4862.17948850;2006.79486707;-0.00000896;-0.00000896;3776.28205031;4532.30769294;4536.28205191;4332.94871816;4041.28205087;4301.53846168;4168.46153833;4172.30769217
4175.89743576;4201.92307686;4171.92307679;4238.71794872;4830.64102690;2006.02563630;-0.00000896;-0.00000896;3778.46153749;4533.71794935;4830.00000125;4305.38461553;3975.89743535;4302.69230784;4168.20512807;4172.30769217
4202.82051275;4176.15384602;4174.35897422;4237.05128206;4762.05128317;2008.58973887;-0.00000896;-0.00000896;3778.58974262;4534.74359037;4270.00000007;4307.17948732;4171.41025628;4301.15384630;4168.71794858;4205.12820506
4204.87179481;4176.15384602;4235.25641026;4237.30769231;4830.38461664;2038.20512355;-0.00000896;-0.00000896;3780.25640929;4501.79487235;4336.41025662;4305.38461553;4044.99999959;4301.28205142;4168.33333320;4205.12820506
4206.41025634;4175.89743576;4169.48717935;4237.69230770;4924.35897582;2041.02563637;-0.00000896;-0.00000896;3808.33333243;4503.71794928;4497.56410312;4305.12820527;4138.20512800;4299.87179501;4142.82051262;4205.12820506
4206.28205122;4202.30769224;4529.23076986;4239.48717949;4829.10256536;2039.10255945;-0.00000896;-0.00000896;3809.35897346;4502.05128261;4567.30769301;4306.02564117;3942.17948656;4302.56410271;4168.97435884;4205.12820506
4206.15384609;4201.92307686;4037.17948677;4240.38461539;4859.87179620;2042.82050817;-0.00000896;-0.00000896;3810.38461449;4502.43589800;4765.12820624;4305.51282066;4241.02564103;4300.25641040;4168.58974345;4205.12820506
4206.15384609;4201.92307686;4205.76923070;4239.87179488;4759.10256522;2067.82050824;-0.00000896;-0.00000896;3809.87179397;4496.41025697;4799.23077042;4304.74358989;3945.51281989;4299.74358989;4170.64102551;4205.12820506
4204.99999993;4203.58974352;4301.28205142;4239.23076923;4758.97436009;2041.53845689;-0.00000896;-0.00000896;3809.99999910;4502.94871851;4367.56410285;4304.74358989;4207.05128199;4300.00000014;4168.71794858;4205.12820506
4202.17948711;4204.48717942;4367.94871823;4241.28205129;4731.41025746;2036.92307227;-0.00000896;-0.00000896;3808.84615295;4503.20512876;4594.87179564;4304.35897450;4203.71794865;4303.58974373;4142.43589723;4205.12820506
4202.82051275;4203.97435891;4234.48717949;4240.00000000;4892.05128344;2039.23076458;-0.00000896;-0.00000896;3781.28205031;4530.38461601;4861.79487312;4304.35897450;4238.97435898;4300.25641040;4168.33333320;4205.12820506
4203.33333327;4205.38461532;4140.76923056;4241.41025641;4828.71794997;2009.87179015;-0.00000896;-0.00000896;3778.33333236;4503.84615441;4828.46153972;4332.69230790;3977.69230714;4300.76923091;4168.71794858;4205.12820506
4203.46153840;4204.61538455;4206.53846147;4240.89743590;4923.20512967;2010.12820041;-0.00000896;-0.00000896;3777.43589647;4503.71794928;4434.74359016;4306.53846168;4169.23076910;4300.64102578;4168.71794858;4205.12820506
4202.56410250;4203.97435891;4141.92307672;4240.38461539;4956.92307846;2006.15384143;-0.00000896;-0.00000896;3777.17948621;4503.20512876;4497.82051338;4332.69230790;4141.15384595;4301.41025655;4168.97435884;4205.12820506
4202.69230763;4202.94871788;4237.56410257;4239.10256411;4923.20512967;2036.92307227;-0.00000896;-0.00000896;3748.97435794;4503.58974415;4635.76923161;4332.30769252;4107.30769203;4301.66666681;4168.46153833;4205.12820506
4202.94871788;4203.84615378;4175.12820499;4238.07692308;4831.92307818;2035.38461073;-0.00000896;-0.00000896;3749.48717845;4535.00000063;4138.97435877;4305.00000014;4399.61538497;4301.92307707;4169.10256397;4205.12820506
4204.48717942;4202.56410250;4010.89743541;4236.92307693;4931.02564249;2008.07691836;-0.00000896;-0.00000896;3774.35897339;4533.58974422;4962.30769384;4305.38461553;3845.89743507;4301.53846168;4168.58974345;4205.12820506
4203.84615378;4202.56410250;4306.53846168;4236.53846154;4763.84615496;2035.64102099;-0.00000896;-0.00000896;3775.76922980;4531.79487242;4470.00000049;4307.17948732;4104.10256383;4301.66666681;4168.71794858;4205.12820506
4204.10256404;4175.64102551;4037.05128164;4237.17948718;4896.53846293;2037.69230304;-0.00000896;-0.00000896;3775.12820416;4530.89743653;4464.10256459;4306.92307707;4104.74358947;4302.56410271;4142.94871774;4205.12820506
4204.48717942;4176.02564089;4301.53846168;4235.76923077;4897.17948857;2039.87179022;-0.00000896;-0.00000896;3775.64102467;4530.25641089;4665.25641116;4307.30769245;4006.92307644;4300.51282066;4168.84615371;4205.12820506
4205.12820506;4175.64102551;4300.38461553;4236.02564103;4864.23077055;2067.82050824;-0.00000896;-0.00000896;3749.61538358;4531.66666730;4338.07692329;4332.69230790;4272.56410264;4301.66666681;4143.46153826;4205.12820506
4205.38461532;4176.02564089;4105.25640998;4235.38461539;4923.71795018;2067.82050824;229.99999153;-0.00000896;3749.10256306;4531.02564165;4233.97435898;4306.15384630;4208.46153840;4302.94871809;4168.97435884;4205.12820506
4203.84615378;4202.05128199;4234.74358975;4235.51282052;4828.33333459;2041.41025176;229.99999153;-0.00000896;3749.23076819;4529.87179550;4792.43589862;4304.74358989;3840.25640943;4303.97435912;4169.74358961;4205.12820506
4204.23076917;4201.66666660;4270.76923084;4235.51282052;4762.05128317;2037.30768766;229.99999153;-0.00000896;3775.38461442;4530.00000063;4404.74359009;4305.51282066;3975.38461483;4301.66666681;4168.33333320;4205.12820506
4205.51282045;4176.28205115;4077.17948684;4236.66666667;4895.89743729;2038.20512355;229.99999153;-0.00000896;3749.35897332;4532.17948781;5027.05128372;4305.51282066;4006.41025593;4301.79487194;4143.07692287;4205.12820506
4204.10256404;4201.02564096;4338.33333355;4236.28205129;4701.15384713;2039.87179022;0.12819617;-0.00000896;3748.97435794;4502.94871851;4176.28205115;4305.38461553;4300.00000014;4301.02564117;4168.33333320;4205.12820506
4205.89743583;4175.89743576;4237.56410257;4208.46153840;4894.87179627;2038.58973894;-0.00000896;-0.00000896;3744.48717845;4532.82051345;4759.74359086;4304.48717963;3943.58974297;4301.02564117;4168.71794858;4205.12820506
4208.20512814;4175.12820499;4204.48717942;4234.10256411;4828.58974484;2038.07691843;229.99999153;-0.00000896;3716.53846043;4530.12820576;4534.48718012;4307.30769245;4012.05128157;4301.41025655;4168.84615371;4205.12820506
4235.12820513;4175.76923063;4238.20512821;4207.30769224;4893.58974498;2008.33332861;-0.00000896;-0.00000896;3714.87179376;4529.87179550;4537.17948781;4305.25641040;4142.56410236;4301.66666681;4168.20512807;4237.94871795
4239.61538462;4174.74358961;4203.46153840;4206.79487173;4925.76923223;2010.12820041;229.99999153;-0.00000896;3714.87179376;4504.35897492;4629.74359058;4333.20512842;3973.20512765;4301.41025655;4142.94871774;4237.94871795
4266.92307700;4174.48717935;4337.17948739;4204.10256404;4796.41025760;2037.82050817;-0.00000896;-0.00000896;3716.28205017;4530.89743653;4405.51282086;4306.53846168;4238.07692308;4303.46153860;4168.20512807;4270.76923084
4270.12820520;4174.35897422;4135.76923056;4202.17948711;4857.94871927;2040.89743125;229.99999153;-0.00000896;3714.74358864;4501.41025697;4896.41025780;4307.05128219;3745.12820409;4302.94871809;4168.33333320;4270.76923084
4272.05128212;4174.61538448;4237.56410257;4172.56410243;4760.64102676;2068.71794414;-0.00000896;-0.00000896;3742.05128101;4497.17948774;4398.97435933;4332.69230790;4238.46153847;4300.51282066;4168.58974345;4270.64102571
4299.61538476;4201.15384609;4300.89743604;4172.17948704;4830.12820638;2071.02563644;229.99999153;-0.00000896;3747.17948614;4470.12820562;4371.15384644;4305.89743604;4143.20512800;4303.33333348;4169.48717935;4303.46153860
4300.89743604;4203.46153840;4404.74359009;4172.30769217;4793.46153965;2073.84614926;-0.00000896;-0.00000896;3776.28205031;4469.74359023;4497.30769287;4306.79487194;4237.56410257;4301.15384630;4143.20512800;4303.46153860
4303.71794886;4206.53846147;4010.25640977;4176.28205115;4828.71794997;2069.61538003;229.99999153;-0.00000896;3777.30769134;4467.69230818;4565.00000070;4306.15384630;4204.87179481;4299.87179501;4141.79487159;4303.46153860
4304.87179501;4209.10256404;4109.48717921;4203.58974352;4831.02564228;2035.38461073;-0.00000896;-0.00000896;3807.56410166;4468.97435946;4632.05128289;4307.30769245;3913.07692239;4301.66666681;4143.46153826;4303.58974373
4306.15384630;4234.48717949;4174.23076910;4205.25641019;4957.94871948;2035.25640560;229.99999153;-0.00000896;3810.89743500;4468.84615434;4826.02564228;4303.58974373;4173.33333320;4301.66666681;4142.69230749;4303.58974373
4303.97435912;4236.02564103;4207.43589737;4208.71794865;4897.17948857;2009.10255938;-0.00000896;-0.00000896;3815.12820423;4497.82051338;4403.33333368;4333.07692329;4304.48717963;4301.92307707;4143.07692287;4303.58974373
4302.30769245;4236.15384616;4241.53846154;4233.84615385;4829.74359100;2008.84614912;229.99999153;-0.00000896;3841.79487096;4499.23076979;4760.89743701;4307.30769245;4008.46153798;4274.61538469;4143.20512800;4303.58974373
4300.25641040;4236.41025641;4431.41025683;4235.00000000;4766.15384727;2009.35896964;-0.00000896;-0.00000896;3844.10256327;4468.33333382;4858.58974491;4306.02564117;4043.46153805;4300.38461553;4143.46153826;4303.58974373
4273.33333341;4235.00000000;4431.02564145;4236.66666667;4797.05128324;2035.38461073;229.99999153;-0.00000896;3815.12820423;4470.38461587;4565.25641096;4332.43589765;3910.89743521;4301.28205142;4143.20512800;4270.76923084
4270.00000007;4235.38461539;4469.61538511;4237.17948718;4897.69230909;2008.33332861;-0.00000896;-0.00000896;3814.87179397;4497.17948774;4600.51282128;4306.53846168;3976.41025586;4301.79487194;4168.58974345;4270.76923084
4268.71794879;4234.23076923;4562.30769301;4235.89743590;4861.02564235;2035.89743125;229.99999153;-0.00000896;3810.64102474;4502.69230825;4663.58974450;4306.02564117;4044.99999959;4300.76923091;4142.94871774;4270.76923084
4241.15384616;4208.58974352;4204.10256404;4236.41025641;4826.28205254;2040.51281586;-0.00000896;-0.00000896;3808.71794782;4471.66666716;4567.05128275;4307.30769245;4234.23076923;4301.66666681;4143.46153826;4237.94871795
4238.84615385;4234.23076923;4434.87179529;4234.87179488;4923.84615531;2040.25640560;229.99999153;-0.00000896;3807.30769141;4497.17948774;4569.35897506;4305.38461553;4008.46153798;4302.82051296;4143.46153826;4237.94871795
4237.69230770;4234.87179488;4075.76923043;4234.23076923;4924.74359121;2040.25640560;-0.00000896;-0.00000896;3809.61538372;4496.41025697;4333.71794893;4332.56410278;4271.79487187;4300.38461553;4168.58974345;4237.94871795
4235.89743590;4234.74358975;4405.51282086;4206.53846147;4895.38461678;2038.20512355;229.99999153;-0.00000896;3807.17948628;4502.56410312;4700.12820610;4334.10256431;4042.43589702;4301.41025655;4143.07692287;4237.94871795
4207.82051275;4236.53846154;4075.12820478;4204.61538455;4961.92307846;2007.56409784;-0.00000896;-0.00000896;3781.28205031;4502.17948774;4402.56410292;4306.66666681;4302.69230784;4302.17948732;4169.10256397;4205.12820506
4205.89743583;4234.87179488;4169.74358961;4204.10256404;4831.28205254;2002.43589271;229.99999153;-0.00000896;3782.05128108;4534.87179550;4895.12820652;4306.28205142;3944.23076861;4300.00000014;4143.33333313;4205.12820506
4205.25641019;4233.97435898;4174.48717935;4201.79487173;4765.51282163;2036.02563637;-0.00000896;-0.00000896;3781.92307595;4564.10256480;4372.17948746;4306.66666681;4203.33333327;4301.28205142;4168.20512807;4205.12820506
4203.33333327;4234.48717949;4236.79487180;4201.92307686;4696.66666764;2036.53845689;229.99999153;-0.00000896;3780.51281954;4536.41025704;4565.00000070;4332.69230790;4173.84615371;4301.15384630;4168.84615371;4205.12820506
4203.84615378;4234.35897436;4304.48717963;4201.92307686;4799.48718067;2009.23076451;-0.00000896;-0.00000896;3781.92307595;4564.10256480;4402.05128240;4305.38461553;4237.17948718;4303.33333348;4168.33333320;4205.12820506
4204.23076917;4206.66666660;4307.17948732;4175.64102551;4830.64102690;2006.92307220;229.99999153;-0.00000896;3810.64102474;4537.17948781;4332.82051303;4333.97435919;4335.76923098;4301.53846168;4168.46153833;4204.99999993
4204.87179481;4205.89743583;3909.61538392;4175.89743576;4828.20512946;2035.76922612;-0.00000896;-0.00000896;3808.71794782;4565.38461608;4601.02564179;4332.69230790;3941.92307630;4301.92307707;4168.20512807;4204.99999993
4205.25641019;4202.17948711;4303.20512835;4176.28205115;4925.51282198;2008.33332861;-0.00000896;-0.00000896;3781.41025544;4564.74359044;4404.74359009;4305.12820527;4076.66666632;4300.64102578;4168.46153833;4204.99999993
4206.66666660;4201.15384609;4042.56410215;4175.12820499;4798.71794990;2037.30768766;0.51281155;-0.00000896;3810.38461449;4564.87179557;4793.20512939;4305.89743604;4037.05128164;4302.17948732;4168.46153833;4204.99999993
4207.82051275;4175.12820499;4306.79487194;4201.15384609;4896.66666806;2035.64102099;229.99999153;-0.00000896;3810.25640936;4564.10256480;4957.69230922;4332.30769252;4235.76923077;4299.48717963;4168.33333320;4205.12820506
4235.00000000;4173.97435884;4234.10256411;4202.30769224;4925.64102710;2041.66666201;229.99999153;-0.00000896;3811.92307602;4562.05128275;4438.71794914;4307.05128219;4140.64102544;4300.64102578;4143.46153826;4237.94871795
4235.64102564;4176.28205115;4069.74358940;4203.58974352;4861.02564235;2041.92307227;229.99999153;-0.00000896;3809.99999910;4534.23076986;4895.51282191;4307.30769245;3847.05128122;4301.15384630;4168.33333320;4237.94871795
4237.05128206;4202.30769224;4110.12820485;4204.48717942;4832.69230895;2038.33332868;229.99999153;-0.00000896;3840.12820430;4536.02564165;4274.10256418;4307.30769245;4267.43589751;4301.15384630;4143.46153826;4237.94871795
4237.82051282;4203.58974352;4204.23076917;4204.35897429;4761.66666778;2035.64102099;-0.00000896;-0.00000896;3840.76922994;4536.53846217;4731.02564207;4332.56410278;4039.48717907;4304.35897450;4142.82051262;4237.94871795
4237.05128206;4202.69230763;4400.25641061;4206.92307686;4992.94871955;2004.10255938;-0.00000896;-0.00000896;3842.56410173;4562.05128275;4600.64102641;4306.92307707;4201.15384609;4301.02564117;4168.20512807;4237.94871795
4236.92307693;4201.53846147;4240.38461539;4206.53846147;4832.17948843;2004.61537989;-0.00000896;-0.00000896;3840.12820430;4564.23076993;4829.87179613;4306.92307707;3841.15384532;4299.74358989;4168.20512807;4237.94871795
4235.89743590;4174.48717935;4269.10256418;4205.51282045;4891.28205268;2008.84614912;-0.00000896;-0.00000896;3813.46153756;4535.00000063;4136.79487159;4306.53846168;4274.10256418;4299.74358989;4142.56410236;4237.94871795
4235.89743590;4173.97435884;4143.33333313;4202.05128199;4860.89743722;2006.66666195;-0.00000896;-0.00000896;3814.23076833;4535.38461601;4401.28205163;4332.94871816;4141.79487159;4300.38461553;4168.46153833;4237.94871795
4235.38461539;4171.02564089;4405.00000035;4173.97435884;4861.79487312;1976.02563623;-0.00000896;-0.00000896;3841.41025558;4564.87179557;4436.15384657;4332.82051303;4135.76923056;4301.92307707;4143.20512800;4237.82051282
4234.10256411;4142.94871774;4075.76923043;4141.28205108;4990.76923237;1970.64102085;-0.00000896;-0.00000896;3840.76922994;4565.12820583;4405.64102599;4335.25641047;4333.33333355;4300.00000014;4143.20512800;4237.82051282
4207.30769224;4138.71794851;4203.07692301;4136.28205108;4831.15384741;2006.53845682;-0.00000896;-0.00000896;3847.69230686;4563.33333403;4894.87179627;4299.48717963;3877.30769155;4299.48717963;4168.20512807;4204.99999993
4205.51282045;4138.07692287;3847.82051199;4139.99999980;4892.82051421;2067.69230311;-0.00000896;-0.00000896;3909.48717880;4530.25641089;4469.23076972;4332.43589765;4235.64102564;4300.00000014;4142.94871774;4204.99999993
4175.89743576;4139.74358954;4039.74358933;4176.02564089;4861.92307825;2005.64102092;-0.00000896;-0.00000896;3873.84615309;4504.48718005;4336.41025662;4306.02564117;4174.74358961;4299.74358989;4142.43589723;4172.17948704
4202.56410250;4138.46153826;4104.61538434;4174.61538448;4829.23077049;2006.41025169;-0.00000896;-0.00000896;3872.82051206;4530.00000063;4857.82051414;4306.41025655;4110.51282024;4299.74358989;4142.82051262;4204.99999993
4201.41025634;4138.46153826;3974.23076868;4173.33333320;4827.30769356;2007.56409784;-0.00000896;-0.00000896;3847.30769148;4504.10256466;4665.00000091;4333.07692329;4533.33333396;4299.61538476;4142.05128185;4204.99999993
4202.30769224;4137.17948697;4365.89743618;4175.76923063;4700.89743687;1975.38461059;-0.00000896;-0.00000896;3845.25640943;4501.92307748;4831.28205254;4307.56410271;4135.76923056;4299.87179501;4141.92307672;4204.99999993
4202.17948711;4137.56410236;4201.41025634;4174.99999986;4696.28205226;2006.66666195;-0.00000896;-0.00000896;3808.58974269;4501.92307748;4335.25641047;4306.15384630;4235.12820513;4274.74358982;4142.56410236;4204.99999993
4204.35897429;4137.43589723;4306.53846168;4142.69230749;4766.28205240;2039.35896971;-0.00000896;-0.00000896;3811.53846064;4498.33333389;4568.07692378;4306.92307707;4137.30769210;4274.74358982;4142.94871774;4204.99999993
4207.05128199;4139.10256390;4569.74359044;4138.58974339;4923.07692454;2042.30768766;-0.00000896;-0.00000896;3813.71794782;4497.17948774;4533.58974422;4333.71794893;4105.25640998;4301.02564117;4142.17948697;4204.99999993
4236.92307693;4141.28205108;4301.66666681;4141.66666646;4858.07692440;2069.35896978;-0.00000896;-0.00000896;3845.51281968;4438.84615427;4562.30769301;4306.79487194;4107.30769203;4274.23076930;4140.89743569;4237.82051282
4238.46153847;4168.84615371;4234.61538462;4171.79487166;4923.71795018;2067.69230311;-0.00000896;-0.00000896;3875.89743514;4437.43589786;4468.71794921;4307.43589758;3913.33333264;4273.20512828;4142.17948697;4237.82051282
4238.97435898;4170.89743576;4270.64102571;4175.51282038;4860.76923209;2039.23076458;-0.00000896;-0.00000896;3880.38461462;4437.17948760;4795.38461657;4306.92307707;3974.10256355;4299.74358989;4141.66666646;4237.82051282
4237.17948718;4173.20512807;4437.69230811;4175.25641012;4858.84615517;2038.84614919;-0.00000896;-0.00000896;3907.56410187;4434.10256452;4503.20512876;4332.30769252;4069.87179453;4273.46153853;4141.53846133;4237.82051282
4235.89743590;4175.51282038;4270.89743597;4174.74358961;4892.69230909;2036.53845689;-0.00000896;-0.00000896;3909.48717880;4405.64102599;4792.30769349;4306.53846168;4172.69230756;4273.33333341;4141.92307672;4237.82051282
4208.46153840;4201.53846147;4339.23076944;4173.20512807;4831.28205254;2008.71794400;-0.00000896;-0.00000896;3913.20512751;4402.56410292;4465.00000049;4306.79487194;4234.74358975;4273.46153853;4141.66666646;4204.99999993
4203.97435891;4206.28205122;4009.48717900;4171.02564089;4929.23077069;2041.53845689;-0.00000896;-0.00000896;3974.99999945;4399.48717984;4433.97435940;4307.17948732;4204.48717942;4274.74358982;4142.43589723;4204.99999993
4174.61538448;4206.92307686;4465.38461587;4175.25641012;4860.76923209;1970.25640547;-0.00000896;-0.00000896;3971.28205073;4434.10256452;4635.64102648;4332.69230790;4011.66666618;4272.56410264;4140.89743569;4172.17948704
4172.17948704;4206.66666660;4077.69230735;4174.61538448;4897.05128344;2004.48717477;229.99999153;-0.00000896;3938.97435835;4431.66666709;4368.46153874;4334.35897457;4201.15384609;4272.69230777;4142.05128185;4172.17948704
4168.71794858;4207.94871788;4300.25641040;4173.46153833;4796.79487298;2040.89743125;32.82050393;-0.00000896;3946.28205066;4431.53846196;4831.92307818;4333.84615406;4172.05128192;4274.35897443;4141.92307672;4172.17948704
4142.05128185;4234.23076923;4267.69230777;4168.84615371;4832.05128331;1974.87179008;-0.00000896;-0.00000896;3974.35897381;4435.25641068;4332.43589765;4334.87179508;4171.53846140;4272.82051289;4142.17948697;4139.35897415
4138.84615364;4235.00000000;4007.56410208;4142.94871774;4759.48718060;1944.35896950;4.61537566;-0.00000896;3976.28205073;4467.05128254;4602.82051359;4333.20512842;4170.12820499;4270.51282059;4142.82051262;4139.35897415
4136.66666646;4233.84615385;4104.74358947;4168.46153833;4896.66666806;1971.79486700;229.99999153;-0.00000896;4004.48717900;4465.12820562;4208.58974352;4333.33333355;4203.20512814;4272.56410264;4142.56410236;4139.35897415
4108.46153819;4205.76923070;4042.82051241;4142.30769210;4792.56410375;1941.41025155;229.99999153;-0.00000896;4006.79487131;4469.35897485;4662.43589834;4334.61538483;4175.25641012;4271.53846161;4142.30769210;4106.53846126
4107.17948691;4202.94871788;4273.20512828;4138.46153826;4861.66666799;1971.15384136;229.99999153;-0.00000896;4006.15384567;4496.79487235;4569.61538531;4334.23076944;3880.12820437;4273.58974366;4142.30769210;4106.53846126
4107.30769203;4176.02564089;3977.17948663;4137.94871774;4795.38461657;2008.33332861;229.99999153;-0.00000896;3978.07692252;4498.58974415;4401.79487215;4334.87179508;4175.51282038;4270.64102571;4142.05128185;4106.53846126
4108.71794844;4201.66666660;4044.35897395;4143.20512800;4795.76923195;2004.61537989;229.99999153;-0.00000896;3976.66666611;4496.53846210;4499.61538518;4334.74358996;3938.84615322;4272.82051289;4142.30769210;4106.53846126
4137.05128185;4176.15384602;4303.20512835;4170.51282038;4695.64102662;2004.74358502;229.99999153;-0.00000896;3946.15384553;4501.41025697;4862.94871927;4307.05128219;4039.35897395;4270.64102571;4142.17948697;4139.35897415
4142.69230749;4201.15384609;3940.64102502;4202.17948711;4962.69230922;2009.61537989;229.99999153;-0.00000896;3974.23076868;4499.35897492;4337.94871816;4332.82051303;4170.12820499;4271.53846161;4141.92307672;4139.48717928
4170.25641012;4202.56410250;4142.69230749;4203.84615378;4828.58974484;2007.17948246;229.99999153;-0.00000896;4005.12820465;4530.64102627;4792.43589862;4335.38461560;4076.53846119;4270.89743597;4142.56410236;4172.30769217
4172.43589730;4202.43589737;4204.23076917;4203.33333327;4895.51282191;2006.02563630;229.99999153;-0.00000896;3979.10256355;4502.43589800;4729.48718053;4334.10256431;4005.25640977;4271.15384623;4142.82051262;4172.30769217
4201.79487173;4204.23076917;4340.38461560;4201.41025634;4799.87179606;2009.99999528;229.99999153;-0.00000896;4004.10256362;4496.53846210;4731.02564207;4335.25641047;3878.46153770;4271.28205136;4142.17948697;4205.12820506
4205.38461532;4207.30769224;4234.10256411;4204.61538455;4859.61538594;2036.41025176;229.99999153;-0.00000896;4011.41025593;4497.56410312;4630.25641109;4332.56410278;3912.17948649;4269.61538469;4141.53846133;4205.12820506
4205.64102558;4234.87179488;4497.05128261;4209.10256404;4764.10256522;2009.61537989;229.99999153;-0.00000896;4040.76923036;4503.46153902;4565.12820583;4333.84615406;3880.51281975;4271.15384623;4142.17948697;4205.12820506
4206.53846147;4236.02564103;4468.84615434;4237.56410257;4794.74359093;2009.23076451;229.99999153;-0.00000896;4041.02564061;4470.25641075;4534.74359037;4334.87179508;3845.38461455;4272.82051289;4168.71794858;4205.12820506
4206.66666660;4238.07692308;4335.38461560;4239.87179488;4831.28205254;2004.99999528;229.99999153;-0.00000896;4042.56410215;4499.87179543;4367.94871823;4333.97435919;4009.61538413;4270.38461546;4143.07692287;4205.12820506
4205.51282045;4239.23076923;4136.41025621;4266.92307700;4797.82051401;2008.97435425;229.99999153;-0.00000896;4041.02564061;4500.51282107;4432.43589786;4307.56410271;4239.74358975;4271.41025648;4142.94871774;4205.12820506
4203.71794865;4240.76923077;4568.07692378;4241.15384616;4796.02564221;2005.12820041;229.99999153;-0.00000896;4038.84615343;4502.82051338;4498.33333389;4305.38461553;4044.61538420;4270.12820520;4143.07692287;4205.12820506
4203.33333327;4239.48717949;4299.74358989;4238.97435898;4988.71795032;1974.23076444;229.99999153;-0.00000896;4038.71794830;4503.20512876;4503.33333389;4333.46153867;4272.17948725;4271.41025648;4142.69230749;4205.12820506
4201.66666660;4237.94871795;4367.82051310;4237.82051282;4863.33333466;2004.48717477;229.99999153;-0.00000896;4041.28205087;4502.17948774;4501.79487235;4332.43589765;4104.23076896;4271.15384623;4142.94871774;4205.12820506
4174.35897422;4237.17948718;4501.53846210;4240.25641026;4861.66666799;1943.33332847;229.99999153;-0.00000896;4042.69230728;4533.46153909;4536.53846217;4335.25641047;4076.53846119;4269.48717956;4142.82051262;4172.30769217
4171.92307679;4235.64102564;4437.69230811;4267.69230777;4632.30769315;1944.48717463;229.99999153;-0.00000896;4039.87179446;4534.74359037;4304.35897450;4306.02564117;4041.02564061;4270.25641033;4142.05128185;4172.30769217
4171.41025628;4207.30769224;4238.20512821;4267.17948725;4798.07692426;2004.10255938;229.99999153;-0.00000896;4039.35897395;4535.76923140;4664.74359065;4335.38461560;4174.23076910;4270.51282059;4143.07692287;4172.30769217
4168.46153833;4207.05128199;4239.87179488;4268.33333341;4694.35897534;1974.35896957;229.99999153;-0.00000896;4009.74358926;4503.71794928;4438.71794914;4306.53846168;4174.10256397;4272.05128212;4143.20512800;4172.30769217
4142.17948697;4206.15384609;4169.48717935;4240.76923077;4826.79487305;2003.58973887;229.99999153;-0.00000896;4037.17948677;4529.61538524;4299.87179501;4335.38461560;4207.94871788;4271.53846161;4143.33333313;4139.48717928
4138.71794851;4207.05128199;4405.76923112;4267.56410264;4865.38461671;1970.64102085;229.99999153;-0.00000896;4006.28205080;4534.23076986;4470.89743639;4333.71794893;4110.64102537;4271.02564110;4169.87179474;4139.48717928
4110.12820485;4205.51282045;4267.56410264;4239.61538462;4990.25641186;1976.41025162;229.99999153;-0.00000896;4010.64102516;4529.74359037;4568.97435967;4334.74358996;4074.99999966;4270.76923084;4168.33333320;4106.66666639
4107.43589716;4204.35897429;4006.53846106;4266.66666674;4956.28205281;1976.41025162;229.99999153;-0.00000896;4006.66666618;4529.87179550;4336.15384637;4335.25641047;4433.97435940;4271.92307700;4141.92307672;4106.66666639
4105.38461511;4202.05128199;4141.15384595;4238.46153847;4895.00000139;2003.71794400;229.99999153;-0.00000896;3978.07692252;4562.05128275;4798.46153965;4334.61538483;4102.56410229;4271.15384623;4168.46153833;4106.66666639
4104.61538434;4175.76923063;4004.74358926;4235.76923077;4862.56410389;2003.58973887;229.99999153;-0.00000896;3975.64102509;4533.46153909;4141.41025621;4307.43589758;4237.30769231;4270.38461546;4169.74358961;4106.66666639
4104.74358947;4174.99999986;4208.71794865;4236.79487180;4792.30769349;1977.05127726;229.99999153;-0.00000896;3975.51281996;4535.76923140;4565.64102634;4333.33333355;4009.74358926;4270.76923084;4168.33333320;4106.66666639
4104.74358947;4175.25641012;4270.64102571;4238.46153847;4796.53846272;2005.64102092;229.99999153;-0.00000896;3976.15384560;4563.46153916;4469.48717998;4335.76923098;4140.51282031;4269.10256418;4168.84615371;4106.66666639
4105.89743562;4173.20512807;4208.46153840;4240.89743590;4828.07692433;2002.94871323;229.99999153;-0.00000896;3975.64102509;4532.69230832;4665.64102655;4306.41025655;4138.07692287;4271.15384623;4170.38461525;4106.66666639
4107.05128178;4172.56410243;3977.94871740;4240.51282052;4831.53846279;2004.87179015;229.99999153;-0.00000896;3974.23076868;4562.43589813;4568.20512890;4333.33333355;4338.33333355;4271.02564110;4143.46153826;4106.66666639
4107.82051255;4171.66666653;4174.99999986;4239.48717949;4763.46153958;2005.38461066;229.99999153;-0.00000896;3971.66666611;4563.84615454;4533.46153909;4335.00000021;3874.87179411;4271.41025648;4143.46153826;4106.66666639
4135.64102544;4170.12820499;4106.15384588;4235.64102564;4766.66666778;1974.61537982;-0.00000896;-0.00000896;3944.99999938;4569.10256480;4397.94871830;4336.79487201;4175.25641012;4272.17948725;4168.33333320;4139.48717928
4138.46153826;4142.82051262;4405.12820548;4208.33333327;4733.07692412;1974.74358495;-0.00000896;-0.00000896;3946.53846092;4536.92307755;4471.28205177;4333.58974380;4106.28205101;4272.17948725;4143.20512800;4139.48717928
4142.43589723;4141.28205108;3844.99999917;4205.38461532;5094.74359155;1974.61537982;229.99999153;-0.00000896;3974.87179432;4567.56410326;4241.02564103;4334.74358996;4371.79487208;4271.28205136;4168.58974345;4139.48717928
4170.12820499;4140.38461518;4237.69230770;4205.64102558;4699.10256508;1977.05127726;-0.00000896;-0.00000896;3977.69230714;4537.17948781;4795.25641144;4334.61538483;4042.17948677;4272.43589751;4168.84615371;4172.30769217
4173.58974345;4140.38461518;4038.84615343;4206.53846147;4925.76923223;2034.87179022;-0.00000896;-0.00000896;3975.64102509;4530.76923140;4536.28205191;4333.97435919;4176.15384602;4272.30769238;4168.20512807;4172.30769217
4176.02564089;4142.43589723;4108.33333306;4234.10256411;4894.10256550;2009.23076451;-0.00000896;-0.00000896;3977.30769176;4533.58974422;4336.79487201;4336.28205149;4204.99999993;4271.15384623;4169.35897422;4172.30769217
4202.17948711;4169.74358961;4142.69230749;4237.05128206;4827.05128331;2008.58973887;-0.00000896;-0.00000896;4004.61538413;4504.10256466;4892.82051421;4335.25641047;4201.66666660;4269.48717956;4168.33333320;4205.12820506
4203.58974352;4170.51282038;4339.87179508;4235.00000000;4961.15384769;2007.43589271;-0.00000896;-0.00000896;3979.35897381;4504.48718005;4597.30769308;4306.92307707;4039.48717907;4271.79487187;4168.20512807;4205.12820506
4204.99999993;4171.15384602;4306.53846168;4237.30769231;4792.05128324;2005.76922605;-0.00000896;-0.00000896;4007.17948670;4504.10256466;4700.38461636;4335.00000021;4038.33333292;4271.92307700;4171.53846140;4205.12820506
4205.12820506;4171.53846140;4303.07692322;4237.69230770;4924.61538608;2007.56409784;-0.00000896;-0.00000896;4004.99999952;4498.84615441;4301.53846168;4332.82051303;4204.35897429;4271.66666674;4143.33333313;4205.12820506
4204.87179481;4173.07692294;4238.07692308;4238.84615385;4829.23077049;2003.84614912;-0.00000896;-0.00000896;4005.38461490;4497.17948774;4596.92307769;4333.07692329;4140.51282031;4270.25641033;4142.94871774;4205.12820506
4205.51282045;4172.30769217;4531.15384678;4235.25641026;4926.66666813;2002.05127733;-0.00000896;-0.00000896;3975.64102509;4500.00000056;4238.46153847;4332.82051303;4333.46153867;4271.53846161;4143.46153826;4205.12820506
4206.66666660;4172.05128192;4137.17948697;4208.84615378;4865.25641158;2036.15384150;-0.00000896;-0.00000896;4009.35897388;4471.41025690;4564.10256480;4333.84615406;4070.12820478;4272.30769238;4142.82051262;4205.12820506
4206.41025634;4174.10256397;4272.05128212;4238.84615385;4794.10256529;2007.69230297;-0.00000896;-0.00000896;4009.99999952;4496.41025697;4466.79487229;4334.61538483;4104.99999973;4271.41025648;4143.20512800;4205.12820506
4204.74358968;4175.76923063;4369.74359003;4266.79487187;4857.94871927;2035.51281586;-0.00000896;-0.00000896;4010.38461490;4466.41025690;4628.07692391;4337.17948739;3972.17948663;4272.30769238;4143.20512800;4205.12820506
4204.23076917;4176.28205115;4239.61538462;4269.35897443;4896.02564242;2004.10255938;-0.00000896;-0.00000896;4038.46153805;4498.97435953;4529.35897499;4334.10256431;3974.99999945;4271.15384623;4142.82051262;4205.12820506
4202.17948711;4175.51282038;4272.30769238;4269.87179495;4924.61538608;1975.76922598;-0.00000896;-0.00000896;4009.48717900;4467.56410305;4602.56410333;4335.12820534;4201.53846147;4273.07692315;4169.99999986;4205.12820506
4201.92307686;4172.56410243;4202.82051275;4267.05128212;4897.05128344;1971.41025162;-0.00000896;-0.00000896;4008.46153798;4498.20512876;4438.46153888;4335.38461560;4137.30769210;4271.66666674;4143.20512800;4205.12820506
4176.28205115;4171.28205115;4339.48717970;4238.46153847;4861.28205261;2002.69230297;-0.00000896;-0.00000896;4006.02564054;4500.51282107;4501.92307748;4335.51282073;4136.92307672;4270.89743597;4143.33333313;4172.30769217
4175.64102551;4171.02564089;4366.53846182;4237.30769231;4824.87179613;2003.20512348;-0.00000896;-0.00000896;3976.53846099;4470.38461587;4731.15384720;4333.20512842;4037.69230728;4272.43589751;4169.10256397;4172.30769217
4175.89743576;4172.05128192;4500.25641082;4208.97435891;4859.48718081;1974.61537982;-0.00000896;-0.00000896;3977.43589688;4471.02564152;4563.58974429;4332.94871816;4206.41025634;4273.07692315;4143.46153826;4172.30769217
4176.15384602;4171.15384602;4234.48717949;4206.53846147;4798.84615503;1977.30768752;-0.00000896;-0.00000896;3976.41025586;4469.48717998;4760.38461650;4333.71794893;3907.94871726;4271.28205136;4142.17948697;4172.30769217
4202.56410250;4170.38461525;4108.46153819;4205.51282045;4794.10256529;2006.41025169;-0.00000896;-0.00000896;3973.84615329;4468.46153895;4371.92307720;4333.71794893;4143.07692287;4272.94871802;4142.94871774;4205.12820506
4202.94871788;4171.41025628;4007.17948670;4206.28205122;4825.00000125;2006.15384143;-0.00000896;-0.00000896;3975.12820458;4467.43589793;4661.15384706;4333.46153867;4075.64102530;4273.46153853;4142.94871774;4205.12820506
4204.99999993;4174.48717935;4110.38461511;4207.94871788;4996.15384776;2008.58973887;-0.00000896;-0.00000896;3976.28205073;4464.61538511;4337.69230790;4334.48717970;4206.66666660;4273.07692315;4143.07692287;4205.12820506
4205.38461532;4175.25641012;4009.61538413;4236.53846154;4797.17948836;2006.79486707;-0.00000896;-0.00000896;3979.23076868;4465.51282100;5059.23077097;4334.35897457;4069.87179453;4273.33333341;4140.89743569;4205.12820506
4205.64102558;4202.17948711;3873.33333257;4238.84615385;4956.53846307;2008.71794400;-0.00000896;-0.00000896;3977.82051227;4464.87179536;4504.35897492;4335.89743611;4268.58974366;4272.30769238;4143.07692287;4205.12820506
4207.17948711;4202.43589737;4438.71794914;4266.79487187;4858.07692440;2039.99999535;-0.00000896;-0.00000896;3946.28205066;4434.35897478;4236.02564103;4335.38461560;4365.12820541;4272.43589751;4143.33333313;4205.12820506
4208.07692301;4206.66666660;4171.53846140;4240.51282052;4895.25641165;2067.69230311;229.99999153;-0.00000896;3942.69230707;4438.46153888;4731.79487284;4334.61538483;4075.89743555;4273.07692315;4143.07692287;4205.12820506
4233.97435898;4234.74358975;4234.87179488;4237.43589744;4891.02564242;2034.99999535;229.99999153;-0.00000896;3943.97435835;4438.07692350;4600.51282128;4337.82051303;4372.82051310;4274.61538469;4170.76923063;4237.94871795
4235.25641026;4237.17948718;4240.00000000;4238.33333334;4795.51282170;1972.05127726;229.99999153;-0.00000896;3944.99999938;4469.35897485;4762.69230881;4334.23076944;4043.46153805;4272.05128212;4143.20512800;4237.94871795
4236.92307693;4235.76923077;4044.74358933;4236.02564103;4897.56410396;1972.94871316;229.99999153;-0.00000896;3972.17948663;4466.79487229;4108.20512793;4307.56410271;4431.53846196;4271.79487187;4143.33333313;4237.94871795
4236.15384616;4208.84615378;4207.69230763;4234.48717949;4890.25641165;2004.23076451;-0.00000896;-0.00000896;3975.51281996;4465.76923126;4795.38461657;4332.69230790;3876.66666591;4271.66666674;4170.25641012;4237.94871795
4235.76923077;4207.43589737;4234.87179488;4204.10256404;4864.87179620;2035.25640560;-0.00000896;-0.00000896;3977.43589688;4498.07692364;4468.33333382;4333.07692329;4176.02564089;4271.66666674;4143.33333313;4237.94871795
4208.33333327;4208.46153840;4267.05128212;4202.82051275;4831.53846279;2005.25640554;229.99999153;-0.00000896;3979.10256355;4496.66666723;4464.74359023;4334.48717970;4171.66666653;4273.58974366;4143.46153826;4205.12820506
4234.23076923;4234.48717949;4336.79487201;4203.20512814;4929.74359121;1974.74358495;-0.00000896;-0.00000896;4007.43589695;4501.41025697;4531.41025704;4335.89743611;3940.76923015;4272.69230777;4168.58974345;4237.94871795
4207.30769224;4208.46153840;4303.46153860;4235.89743590;4893.71795011;2003.84614912;229.99999153;-0.00000896;4012.05128157;4497.30769287;4660.64102655;4335.38461560;4038.58974318;4271.02564110;4135.38461518;4205.12820506
4204.48717942;4234.10256411;4205.38461532;4237.69230770;4765.51282163;2002.17948246;-0.00000896;-0.00000896;4011.66666618;4503.33333389;4402.94871830;4333.84615406;4044.23076882;4271.79487187;4143.46153826;4205.12820506
4203.84615378;4208.97435891;4109.35897408;4236.66666667;4990.76923237;2006.02563630;229.99999153;-0.00000896;4005.25640977;4501.66666723;4567.17948788;4333.71794893;4208.71794865;4272.17948725;4143.46153826;4205.12820506
4203.07692301;4233.97435898;4300.51282066;4236.92307693;4923.58974505;2003.20512348;-0.00000896;-0.00000896;3978.46153791;4498.71794928;4369.35897464;4333.97435919;4339.61538483;4273.20512828;4168.46153833;4205.12820506
4204.35897429;4235.12820513;4271.53846161;4238.71794872;4829.10256536;2004.99999528;229.99999153;-0.00000896;3944.99999938;4531.66666730;4595.12820590;4333.84615406;4105.64102537;4272.17948725;4142.30769210;4205.12820506
4208.20512814;4236.53846154;4365.64102592;4267.56410264;4825.12820638;2007.82050810;-0.00000896;-0.00000896;3942.05128143;4503.84615441;4700.38461636;4334.23076944;3978.58974304;4271.92307700;4169.61538448;4205.12820506
4237.30769231;4237.17948718;4300.25641040;4269.48717956;4731.02564207;1976.41025162;229.99999153;-0.00000896;3943.84615322;4532.05128268;4237.30769231;4333.84615406;3910.76923008;4270.38461546;4143.46153826;4237.94871795
4267.69230777;4236.02564103;4533.97435960;4268.97435905;4825.51282177;2035.51281586;-0.00000896;-0.00000896;4004.23076875;4529.87179550;4470.64102613;4332.82051303;4107.69230742;4271.66666674;4141.15384595;4270.76923084
4272.05128212;4237.82051282;4432.56410298;4240.64102564;4798.58974477;1974.23076444;229.99999153;-0.00000896;3978.71794817;4503.97435953;4339.10256431;4333.58974380;4038.71794830;4272.05128212;4168.58974345;4270.76923084
4273.84615392;4238.20512821;4338.46153867;4234.35897436;4859.87179620;2042.17948253;-0.00000896;-0.00000896;4005.25640977;4530.12820576;4504.35897492;4332.82051303;3942.69230707;4271.79487187;4170.25641012;4270.76923084
4274.74358982;4238.46153847;3944.23076861;4238.33333334;4795.89743708;1943.33332847;229.99999153;-0.00000896;4043.97435856;4532.30769294;4302.05128219;4333.58974380;3909.87179418;4272.17948725;4168.71794858;4270.76923084
4272.82051289;4237.43589744;4566.15384685;4268.71794879;4857.56410389;1940.89743104;-0.00000896;-0.00000896;4006.28205080;4562.69230839;4667.56410347;4333.71794893;3877.17948642;4272.05128212;4168.58974345;4270.76923084
4270.89743597;4234.74358975;4438.07692350;4270.64102571;4859.87179620;2005.25640554;229.99999153;-0.00000896;4038.58974318;4533.58974422;4467.05128254;4307.17948732;3942.94871733;4271.66666674;4168.33333320;4270.76923084
4268.33333341;4233.84615385;4438.33333375;4300.38461553;4825.64102690;1977.05127726;-0.00000896;-0.00000896;4038.58974318;4530.89743653;4728.33333438;4307.56410271;4272.43589751;4271.28205136;4168.84615371;4270.76923084
