Gyro-X;Gyro-Z;AF3;Gyro-Y;T7;Acc-X;Pz;QualityData_1;QualityData_2;Acc-Z;Acc-Y;T8;Mag-X;AF4;Mag-Z;Mag-Y;Mag-X;Gyro-X 
4204.23076917;3782.05128108;4204.99999993;5024.10256577;4339.35897457;2462.82050907;229.99999153;-0.00000896;3512.82051130;3942.56410194;4203.71794865;4303.58974373;3909.74358905;4273.58974366;4170.38461525;4205.89743583
4205.89743583;3844.87179404;4336.53846175;4995.64102724;4432.17948760;2530.76922716;229.99999153;-0.00000896;3419.99999827;3879.48717873;4272.69230777;4301.66666681;4206.92307686;4299.61538476;4170.64102551;4205.89743583
4203.07692301;3910.89743521;4273.58974366;4957.69230922;4535.00000063;2527.94871434;229.99999153;-0.00000896;3316.92307498;3879.35897360;4340.00000021;4302.56410271;4138.84615364;4300.64102578;4172.82051269;4205.76923070
4205.76923070;3946.41025579;4595.00000077;4928.33333480;4601.79487256;2434.74358593;229.99999153;-0.00000896;3188.46153624;3879.61538385;4301.79487194;4300.25641040;4399.10256445;4302.43589758;4169.74358961;4205.76923070
4234.87179488;3975.51281996;4599.35897513;4959.23077076;4601.02564179;2430.12820131;229.99999153;-0.00000896;3057.30768981;3873.20512744;4533.07692371;4301.79487194;4438.33333375;4302.94871809;4169.48717935;4238.58974359
4240.12820513;4007.17948670;4336.53846175;4957.05128358;4400.25641061;2466.02563728;229.99999153;-0.00000896;2994.74358711;3847.17948635;4236.66666667;4302.05128219;4333.46153867;4303.46153860;4169.23076910;4238.58974359
4267.30769238;4042.56410215;5093.46154027;4892.56410396;5087.82051463;2529.74358613;229.99999153;-0.00000896;2961.28204858;3812.43589654;5224.23077132;4300.00000014;5225.76923286;4305.25641040;4168.33333320;4271.41025648
4269.61538469;4103.07692280;5189.23077125;4827.82051408;5220.51282260;2560.25640672;229.99999153;-0.00000896;2957.56409986;3809.35897346;5222.05128414;4273.33333341;5186.79487381;4307.17948732;4168.84615371;4271.28205136
4273.97435905;4137.30769210;5583.71795157;4796.28205247;5450.25641283;2566.15384261;229.99999153;-0.00000896;2888.20512536;3776.15384518;5516.79487451;4300.38461553;5650.38461838;4307.17948732;4168.84615371;4271.28205136
4303.33333348;4172.30769217;5910.51282406;4826.66666792;5685.25641332;2563.07691954;229.99999153;-0.00000896;2856.79486888;3716.66666556;5914.48718303;4272.56410264;5814.23077257;4335.25641047;4141.15384595;4304.10256425
4307.43589758;4237.56410257;5783.20513147;4830.12820638;5583.07692593;2628.71794532;229.99999153;-0.00000896;2823.71794573;3682.82051164;5744.10256730;4273.20512828;5713.33333646;4334.35897457;4168.46153833;4304.10256425
4306.92307707;4274.35897443;5913.07692662;4825.12820638;5845.51282392;2665.89743257;229.99999153;-0.00000896;2792.82050977;3683.46153728;5910.64102919;4270.38461546;5876.53846502;4335.00000021;4168.71794858;4304.10256425
4305.51282066;4366.28205156;5974.23077292;4762.05128317;5940.76923439;2664.48717616;229.99999153;-0.00000896;2791.41025336;3715.51281940;6044.48718331;4270.00000007;6008.58974735;4335.64102585;4168.58974345;4304.10256425
4304.61538476;4405.51282086;6340.38461984;4730.64102669;6076.41026031;2662.43589410;229.99999153;-0.00000896;2757.82050970;3716.15384505;6339.48718394;4270.12820520;6208.20513238;4338.46153867;4168.58974345;4304.10256425
4305.89743604;4467.17948767;5912.17949073;4732.94871899;5878.07692656;2659.48717616;229.99999153;-0.00000896;2593.20512473;3778.33333236;6076.66667056;4268.46153853;5977.05128574;4336.92307714;4168.71794858;4304.10256425
4337.43589765;4504.10256466;4628.46153930;4796.28205247;4631.41025725;2630.25640686;229.99999153;-0.00000896;2562.56409902;3809.48717859;4792.43589862;4268.71794879;4663.97435988;4338.07692329;4170.38461525;4336.92307714
4366.79487208;4536.66666730;5158.46154041;4793.46153965;5158.07692503;2726.66666347;229.99999153;-0.00000896;2595.51281704;3845.12820430;5192.69230971;4270.51282059;5318.07692537;4339.48717970;4169.35897422;4369.74359003
4367.69230797;4568.58974429;5617.69231061;4759.87179599;5678.33333639;2790.64102259;229.99999153;-0.00000896;2595.76922730;3847.94871712;5679.74359280;4267.05128212;5745.64102884;4339.74358996;4171.79487166;4369.74359003
4371.28205156;4600.12820590;6208.97436315;4728.58974464;6334.87179932;2795.12820207;229.99999153;-0.00000896;2593.97435550;3878.97435821;6143.71795275;4239.61538462;6074.48718338;4340.12820534;4170.38461525;4369.74359003
4401.02564138;4631.28205212;5613.97436190;4729.48718053;5711.79487493;2764.61538149;229.99999153;-0.00000896;2560.38461184;3880.51281975;5780.12820840;4239.61538462;5584.74359260;4366.92307720;4170.89743576;4402.56410292
4404.10256445;4661.79487270;4959.87179640;4765.12820624;4699.23077021;2822.82050984;229.99999153;-0.00000896;2531.28204767;3909.23076854;4858.84615517;4241.53846154;5026.02564270;4366.28205156;4170.76923063;4402.56410292
4432.43589786;4694.23077021;5187.05128407;4797.05128324;5124.10256598;2923.46153569;229.99999153;-0.00000896;2534.74358613;3938.58974297;5090.38461720;4235.64102564;5091.53846335;4365.89743618;4171.02564089;4435.38461581
4434.23076965;4699.87179585;5552.17948996;4796.66666785;5449.74359232;2994.23076659;229.99999153;-0.00000896;2564.10256056;3940.76923015;5252.69230985;4239.61538462;5546.66666945;4367.69230797;4169.48717935;4435.38461581
4434.61538504;4731.28205233;5849.35897777;4795.12820631;5777.69231096;3054.35897186;229.99999153;-0.00000896;2563.97435543;3971.53846099;5946.41026003;4237.69230770;5913.71795227;4368.71794900;4171.66666653;4435.38461581
4433.71794914;4763.84615496;5646.66666966;4796.02564221;5488.84615649;3024.10256154;229.99999153;-0.00000896;2434.99999618;3977.56410201;5546.66666945;4236.15384616;5615.64102856;4369.61538490;4172.17948704;4435.38461581
4434.87179529;4796.02564221;4334.74358996;4828.07692433;4963.33333487;3021.92307436;-0.00000896;-0.00000896;2370.25640630;4004.10256362;4305.12820527;4206.28205122;4497.69230825;4370.51282079;4172.82051269;4435.38461581
4433.07692350;4824.87179613;4730.89743694;4831.53846279;4890.76923216;3091.53845911;-0.00000896;-0.00000896;2332.69230367;4004.10256362;4832.43589869;4207.69230763;4529.74359037;4371.02564131;4173.46153833;4435.38461581
4403.71794907;4858.20512953;5026.53846321;4796.28205247;5226.53846363;3185.89743368;229.99999153;-0.00000896;2267.05127789;4011.28205080;4930.64102710;4204.35897429;4989.10256570;4371.66666695;4173.71794858;4402.56410292
4398.71794907;4892.05128344;5520.64102835;4732.30769335;5450.00000257;3217.94871580;-0.00000896;-0.00000896;2199.87179057;4071.53846119;5581.41025926;4203.97435891;5550.89743868;4372.69230797;4172.43589730;4402.56410292
4368.97435926;4925.76923223;6143.46154250;4665.38461629;6173.20513231;3188.58974137;-0.00000896;-0.00000896;2072.69230311;4136.15384595;6238.20513245;4206.79487173;6243.20513245;4371.15384644;4173.46153833;4369.61538490
4365.12820541;4957.17948871;5614.35897728;4596.79487256;5579.61538747;3120.38461303;-0.00000896;-0.00000896;1936.66666181;4238.58974359;5614.48718241;4204.48717942;5651.02564402;4372.69230797;4201.15384609;4369.61538490
4334.23076944;4958.46153999;5321.41025871;4496.79487235;5351.53846390;3087.05127962;-0.00000896;-0.00000896;1906.92307199;4272.69230777;5454.10256668;4203.84615378;5354.48718185;4373.07692336;4174.74358961;4336.66666688
4304.23076937;4929.61538608;5553.46154124;4339.10256431;5716.92308005;3086.66666424;-0.00000896;-0.00000896;1903.58973866;4333.33333355;5612.82051574;4202.30769224;5714.87179800;4398.20512856;4175.25641012;4303.71794886
4300.12820527;4923.84615531;6602.30769731;4233.84615385;6301.79487618;3060.12820263;-0.00000896;-0.00000896;1910.89743097;4367.05128233;6568.46154340;4204.48717942;6600.25641526;4397.94871830;4175.89743576;4303.58974373
4272.17948725;4894.35897575;5291.79487402;4169.10256397;5419.23077174;3060.12820263;-0.00000896;-0.00000896;1970.12820034;4402.82051317;5159.48718144;4176.28205115;5320.12820743;4371.41025669;4176.28205115;4270.64102571
4268.20512828;4890.89743729;4992.05128365;4076.28205094;5157.56410451;3089.87179244;-0.00000896;-0.00000896;2036.92307227;4436.28205170;4923.20512967;4202.69230763;4700.38461636;4372.94871823;4201.28205122;4270.64102571
4237.30769231;4862.43589876;4765.76923188;4009.61538413;4827.56410382;3122.56410021;-0.00000896;-0.00000896;2075.25640567;4406.02564138;4828.33333459;4202.82051275;4562.17948788;4371.79487208;4201.92307686;4237.69230770
4206.02564096;4862.17948850;4792.05128324;3941.79487117;5029.23077090;3125.38461303;-0.00000896;-0.00000896;2134.87179043;4431.02564145;4471.53846203;4176.28205115;4502.17948774;4372.82051310;4202.30769224;4204.87179481
4172.30769217;4865.12820645;4208.58974352;3875.12820437;4435.25641068;3151.28204899;-0.00000896;-0.00000896;2234.23076500;4403.46153881;4568.33333403;4202.69230763;4366.92307720;4371.66666695;4202.94871788;4171.92307679
4110.25640998;4892.82051421;4372.82051310;3813.20512731;4502.69230825;3121.79486944;-0.00000896;-0.00000896;2365.89743194;4402.94871830;3911.66666598;4201.41025634;4629.35897520;4371.02564131;4204.23076917;4106.28205101
4044.74358933;4923.33333480;3813.58974269;3778.97435801;3977.43589688;3092.17948475;-0.00000896;-0.00000896;2431.53845772;4470.00000049;4236.41025641;4204.61538455;3647.56410132;4370.51282079;4204.48717942;4040.51282010
3979.23076868;4928.07692454;3748.84615281;3745.51281947;3873.33333257;3055.64102314;-0.00000896;-0.00000896;2432.94871413;4531.15384678;3413.46153673;4202.30769224;3945.12820451;4371.53846182;4205.76923070;3974.87179432
3939.74358912;4956.79487333;3878.58974283;3714.74358864;4011.92307644;2958.58974088;-0.00000896;-0.00000896;2500.89743222;4633.20512904;3879.23076847;4175.76923063;4107.82051255;4370.00000028;4206.15384609;3942.05128143
3874.99999924;4928.33333480;3878.07692232;3681.79487062;4007.43589695;2892.05127921;-0.00000896;-0.00000896;2563.20512467;4731.53846258;4037.43589702;4205.38461532;4302.17948732;4369.74359003;4207.43589737;3876.41025565
3809.74358884;4896.28205268;3125.89743354;3650.12820388;3125.76922841;2822.94871496;-0.00000896;-0.00000896;2531.41025280;4828.97436023;3188.84615163;4203.97435891;3155.25640797;4367.17948746;4208.20512814;3810.64102474
3779.23076826;4890.25641165;3483.20512661;3649.10256286;3677.17948600;2789.74358669;-0.00000896;-0.00000896;2597.43589397;4898.20512960;3383.07692127;4205.38461532;3416.79487006;4365.51282079;4234.10256411;3777.82051185
3745.38461435;4826.15384741;2234.61538038;3647.43589619;2403.20512432;2732.05127886;-0.00000896;-0.00000896;2692.43589417;4992.69230929;2267.94871378;4207.05128199;2402.43589355;4367.94871823;4237.17948718;3744.99999896
3683.07692190;4762.43589855;2924.99999722;3612.82051150;3056.53845904;2699.35897110;-0.00000896;-0.00000896;2666.28204795;5091.15384796;2894.48717664;4204.23076917;2860.89743298;4339.61538483;4237.30769231;3679.35897318
3677.69230651;4699.87179585;2693.46153520;3581.92307554;2827.30768932;2730.51281732;-0.00000896;-0.00000896;2598.33332986;5127.56410444;2659.48717616;4205.12820506;2661.53845821;4339.87179508;4237.82051282;3679.35897318
3681.92307575;4662.82051373;2760.64102252;3581.41025502;2828.07692009;2696.79486853;-0.00000896;-0.00000896;2696.02563776;5186.53846356;2696.53845828;4206.53846147;2631.79486839;4339.48717970;4239.35897436;3679.35897318
3711.79487069;4596.41025718;2366.15384220;3584.23076784;2370.38461143;2692.05127879;-0.00000896;-0.00000896;2859.61538170;5186.66666869;2401.41025252;4205.64102558;2399.10256022;4337.30769252;4240.12820513;3712.17948607
3710.76922966;4534.35897499;2465.64102189;3582.69230631;2532.30768870;2758.97435585;-0.00000896;-0.00000896;2923.58974081;5158.71795067;2363.20512425;4208.58974352;2435.12820131;4337.30769252;4241.28205129;3712.17948607
3708.84615274;4529.61538524;2626.66666327;3578.84615246;2697.17948392;2790.38461233;-0.00000896;-0.00000896;2925.89743312;5158.58974554;2627.56409916;4235.51282052;2761.28204816;4333.97435919;4266.79487187;3712.17948607
3710.25640915;4503.58974415;2696.28204802;3579.10256272;2730.64102245;2730.12820194;229.99999153;-0.00000896;2956.66666396;5189.87179689;2696.92307366;4208.97435891;2730.51281732;4333.58974380;4267.94871802;3712.17948607
3715.12820402;4501.41025697;2532.94871434;3582.43589605;2692.82050956;2698.46153520;229.99999153;-0.00000896;3054.10256160;5220.64102773;2629.23076583;4207.30769224;2465.12820138;4307.56410271;4270.38461546;3712.17948607
3742.17948614;4501.79487235;2363.20512425;3614.48717817;2435.51281669;2665.38461205;229.99999153;-0.00000896;3087.94871552;5253.33333549;2332.43589341;4236.53846154;2338.33332931;4306.79487194;4268.33333341;3744.99999896
3745.89743486;4501.41025697;2923.58974081;3646.92307568;2957.94871524;2659.48717616;229.99999153;-0.00000896;3093.07692065;5287.82051505;2826.02563804;4204.61538455;2790.12820207;4304.61538476;4270.64102571;3744.99999896
3778.20512724;4501.92307748;2730.76922758;3679.23076805;2828.33333035;2761.92307380;-0.00000896;-0.00000896;3060.12820263;5255.89743806;2859.35897144;4234.87179488;2757.30768918;4305.64102578;4272.17948725;3777.94871698
3812.82051192;4563.71794942;2529.10256049;3681.79487062;2599.48717602;2857.43589452;72.82050400;-0.00000896;3053.33333084;5284.35897659;2694.35897110;4234.10256411;2567.43589390;4302.69230784;4271.66666674;3810.76922987
3847.43589661;4601.79487256;3380.76922897;3647.82051157;3549.48717803;2889.87179203;229.99999153;-0.00000896;3189.74358752;5285.25641248;3354.99999813;4206.66666660;3282.30769030;4301.15384630;4272.69230777;3843.46153763
3874.35897360;4662.56410347;3387.69230589;3581.66666528;3585.51281913;2789.99999695;72.82050400;-0.00000896;3348.58974172;5323.84615614;3481.53845994;4235.38461539;3385.25640845;4273.58974366;4273.58974366;3876.28205052
3847.17948635;4668.33333424;3449.74358808;3548.71794726;3417.30769057;2627.43589403;229.99999153;-0.00000896;3383.97435717;5420.64102815;3383.84615204;4234.74358975;3519.61538309;4300.00000014;4273.71794879;3843.46153763
3847.82051199;4667.69230860;3183.97435675;3577.82051143;3284.23076722;2561.66666313;72.82050400;-0.00000896;3384.87179307;5485.25641290;3419.87179314;4234.35897436;3155.25640797;4272.56410264;4299.48717963;3843.46153763
3873.46153770;4635.51282135;3845.38461455;3582.17948579;3847.94871712;2494.74358606;229.99999153;-0.00000896;3517.17948565;5581.02564388;3683.07692190;4208.46153840;4366.66666695;4271.53846161;4300.64102578;3876.28205052
3875.76923001;4600.12820590;4010.89743541;3613.84615253;4338.07692329;2530.51281690;72.82050400;-0.00000896;3644.61538337;5650.51282350;4266.79487187;4233.97435898;4137.43589723;4270.00000007;4300.89743604;3876.28205052
3874.10256334;4563.58974429;4338.07692329;3645.51281927;4595.76923154;2594.61538114;229.99999153;-0.00000896;3715.38461428;5712.17949031;4634.74359058;4208.84615378;4465.38461587;4268.33333341;4302.05128219;3876.28205052
3846.28205045;4530.00000063;4335.38461560;3649.35897311;4434.87179529;2593.58974012;72.82050400;-0.00000896;3712.56410146;5717.43590057;3976.66666611;4205.12820506;3944.74358912;4266.92307700;4301.92307707;3843.46153763
3846.15384532;4496.92307748;4300.51282066;3676.28205010;4890.25641165;2627.69230429;229.99999153;-0.00000896;3744.74358871;5750.12820833;4663.46153937;4207.05128199;4365.38461567;4241.02564103;4302.17948732;3843.58974276
3846.53846071;4468.20512870;4306.02564117;3677.17948600;4076.53846119;2596.02563756;72.82050400;-0.00000896;3742.05128101;5776.79487506;4009.10256362;4205.51282045;4042.17948677;4241.79487180;4301.15384630;3843.58974276
3874.74358898;4437.05128247;4273.46153853;3679.23076805;4567.94871865;2595.25640679;229.99999153;-0.00000896;3779.74358877;5780.38461865;4139.74358954;4206.66666660;4137.69230749;4238.58974359;4303.58974373;3876.41025565
3880.89743514;4403.84615420;4728.84615489;3680.89743472;4798.20512939;2625.64102224;72.82050400;-0.00000896;3906.41025572;5748.33333653;4469.35897485;4206.15384609;4436.92307734;4237.05128206;4303.33333348;3876.41025565
3879.48717873;4370.76923105;4501.53846210;3677.69230651;4602.30769308;2628.71794532;229.99999153;-0.00000896;4005.76923029;5781.53846481;4502.94871851;4206.92307686;4336.53846175;4238.46153847;4303.84615399;3876.41025565
3872.94871719;4336.92307714;4562.56410326;3648.33333209;4825.51282177;2599.23076576;72.82050400;-0.00000896;4038.58974318;5810.51282385;4404.35897471;4204.87179481;4470.00000049;4237.17948718;4304.87179501;3876.28205052
3843.33333250;4305.38461553;4464.87179536;3647.69230645;4596.79487256;2633.20512480;229.99999153;-0.00000896;4006.92307644;5810.00000334;4667.43589834;4208.58974352;4767.05128317;4235.76923077;4303.97435912;3843.46153763
3844.35897353;4274.61538469;4466.53846203;3649.99999875;4631.53846238;2628.84615045;72.82050400;-0.00000896;4069.74358940;5813.71795206;4173.33333320;4234.35897436;4432.05128247;4207.30769224;4306.15384630;3843.46153763
3842.94871712;4266.92307700;4274.23076930;3676.02563985;4533.71794935;2662.30768898;229.99999153;-0.00000896;4173.58974345;5783.20513147;4562.43589813;4208.20512814;4405.64102599;4208.46153840;4304.35897450;3843.58974276
3814.48717859;4237.43589744;4536.41025704;3650.25640901;4401.66666702;2697.94871469;72.82050400;-0.00000896;4267.05128212;5778.84615712;4143.20512800;4234.61538462;4536.41025704;4206.28205122;4301.92307707;3810.64102474
3779.23076826;4206.15384609;4434.23076965;3646.66666542;4365.38461567;2627.94871455;229.99999153;-0.00000896;4365.89743618;5815.51282385;4893.20512960;4207.43589737;4499.23076979;4203.71794865;4304.10256425;3777.82051185
3746.28205024;4173.84615371;4536.53846217;3649.10256286;4399.23076958;2627.82050942;72.82050400;-0.00000896;4469.10256459;5842.94872136;4463.71794921;4206.28205122;4372.94871823;4205.12820506;4304.61538476;3744.99999896
3714.74358864;4140.89743569;4301.66666681;3676.79487062;4402.69230804;2630.25640686;229.99999153;-0.00000896;4563.97435967;5809.87179821;4304.61538476;4206.02564096;4208.58974352;4202.17948711;4302.30769245;3712.30769120
3649.35897311;4109.10256383;4600.25641102;3649.10256286;4665.25641116;2600.76922730;72.82050400;-0.00000896;4600.12820590;5843.58974700;4532.56410319;4207.30769224;4300.38461553;4175.76923063;4304.35897450;3646.53846029
3611.28204997;4075.89743555;4269.10256418;3676.53846036;4469.74359023;2628.58974019;229.99999153;-0.00000896;4628.58974443;5842.30769572;4404.10256445;4206.28205122;4338.20512842;4174.74358961;4304.10256425;3613.84615253
3551.66666521;4044.61538420;4464.48717998;3709.74358864;4403.20512856;2661.92307359;72.82050400;-0.00000896;4699.48718046;5783.84615712;4139.74358954;4235.76923077;4072.43589709;4172.94871781;4304.10256425;3548.20512675
3512.05128053;4041.28205087;4103.20512793;3709.87179376;4399.74359009;2627.05127865;229.99999153;-0.00000896;4766.28205240;5781.53846481;4237.56410257;4206.53846147;4239.87179488;4171.92307679;4303.46153860;3515.38461386
3450.51281885;4037.43589702;3742.94871691;3713.71794761;4172.05128192;2631.66666327;72.82050400;-0.00000896;4792.17948836;5781.28205455;4272.69230777;4208.84615378;4044.10256369;4168.71794858;4302.30769245;3449.74358808
3416.15384442;4007.43589695;4172.69230756;3745.64102460;4401.53846189;2598.84615038;229.99999153;-0.00000896;4797.94871913;5750.12820833;4469.87179536;4205.76923070;4106.15384588;4140.64102544;4303.33333348;3416.92307519
3383.97435717;3974.74358919;3219.87179272;3748.71794768;3449.87179321;2631.02563762;35.12819624;-0.00000896;4897.43589883;5712.43590057;3283.33333132;4205.51282045;3183.58974137;4141.66666646;4302.05128219;3384.10256230
3348.20512633;3944.10256348;3417.05128032;3781.15384518;3156.41025412;2595.25640679;131.53845286;-0.00000896;5021.92307859;5617.05128497;3156.41025412;4203.33333327;3446.28204962;4139.10256390;4302.30769245;3351.28204941
3283.07692107;3940.25640963;2560.12820159;3847.43589661;2726.66666347;2564.23076569;-0.00000896;-0.00000896;5090.51282232;5614.87179779;2665.76922744;4205.76923070;2432.69230387;4137.56410236;4300.12820527;3285.76922876
3223.84615170;3938.97435835;2829.99999702;3909.87179418;2564.99999646;2659.74358641;229.99999153;-0.00000896;5090.89743771;5548.58974637;2858.97435606;4208.97435891;2760.25640713;4136.02564082;4300.00000014;3220.12820298
3221.66666452;3938.97435835;2599.87179140;3944.10256348;2527.17948357;2658.58974026;229.99999153;-0.00000896;5092.43589925;5486.15384880;2594.87179140;4206.79487173;2501.66666299;4109.74358947;4273.71794879;3220.25640811
3223.46153631;3913.33333264;2467.94871420;3971.66666611;2429.74358593;2599.23076576;229.99999153;-0.00000896;5126.66666855;5448.20513078;2496.92307324;4234.87179488;2469.23076548;4107.94871767;4271.79487187;3220.25640811
3254.48717741;3910.25640957;2595.64102217;4004.61538413;2692.43589417;2593.84615038;229.99999153;-0.00000896;5221.79487388;5388.97436141;2632.94871455;4234.74358975;2500.38461171;4107.17948691;4271.66666674;3253.07692100
3284.61538260;3907.43589674;2660.38461205;4040.76923036;2697.05127879;2560.76922723;-0.00000896;-0.00000896;5255.25641241;5383.58974603;2857.30768939;4236.53846154;2665.12820180;4103.58974332;4269.74358982;3285.89743389
3316.28204934;3876.02564027;2659.23076590;4072.56410222;2757.69230457;2532.94871434;-0.00000896;-0.00000896;5292.05128428;5287.05128428;2561.92307338;4207.56410250;2758.33333021;4103.58974332;4268.97435905;3318.84615190
3348.07692120;3845.51281968;2530.76922716;4104.74358947;2697.17948392;2533.84615024;-0.00000896;-0.00000896;5354.10256647;5286.66666889;2529.87179126;4234.10256411;2658.58974026;4077.82051248;4267.82051289;3351.66666479
3355.76922890;3813.71794782;3516.79487027;4136.66666646;3387.30769050;2494.61538094;-0.00000896;-0.00000896;5386.92307936;5189.10256612;3022.17948461;4236.92307693;3383.46153666;4076.02564068;4239.35897436;3351.66666479
3386.79486999;3779.23076826;2926.15384338;4140.12820492;2888.58974074;2497.05127837;-0.00000896;-0.00000896;5484.10256675;5054.61538636;3446.92307526;4237.17948718;3188.71794650;4075.51282017;4240.12820513;3384.48717768
3416.53845981;3779.87179390;3355.12820326;4174.48717935;3318.71794678;2600.25640679;-0.00000896;-0.00000896;5518.20513092;4897.30769370;3253.07692100;4236.28205129;3153.20512592;4073.84615350;4238.46153847;3417.30769057
3420.25640852;3814.99999910;3287.82051081;4236.92307693;3252.05127997;2697.17948392;-0.00000896;-0.00000896;5583.46154131;4826.79487305;3414.35897263;4208.84615378;3223.58974144;4071.79487145;4237.56410257;3417.43589570
3450.25640859;3908.07692239;3185.64102342;4272.17948725;3184.99999778;2726.92307373;-0.00000896;-0.00000896;5550.00000278;4798.33333452;3284.35897235;4237.82051282;3318.84615190;4073.20512786;4237.94871795;3450.25640859
3483.20512661;3945.38461476;3355.12820326;4332.94871816;3382.69230589;2566.15384261;-0.00000896;-0.00000896;5583.84615670;4825.12820638;3584.99999861;4235.64102564;3351.92307505;4072.69230735;4234.35897436;3483.20512661
3485.64102405;3972.56410201;4306.66666681;4365.25641054;3944.74358912;2400.25640637;-0.00000896;-0.00000896;5613.58974651;4824.87179613;3945.89743528;4236.41025641;3946.53846092;4071.28205094;4208.84615378;3483.20512661
3515.76922924;3940.76923015;4237.17948718;4368.58974387;4077.43589709;2363.20512425;-0.00000896;-0.00000896;5584.61538747;4796.66666785;4234.61538462;4237.17948718;4334.61538483;4071.02564068;4208.20512814;3516.02563950
3547.56410111;3879.61538385;4565.12820583;4398.71794907;3975.76923022;2365.38461143;-0.00000896;-0.00000896;5554.35897714;4732.30769335;4733.20512925;4239.35897436;4498.20512876;4070.38461504;4206.79487173;3548.84615239
3580.38461400;3842.82051199;4602.30769308;4402.69230804;4794.48718067;2403.58973970;-0.00000896;-0.00000896;5553.07692586;4635.64102648;4437.94871837;4238.97435898;4733.97436002;4070.25640991;4203.20512814;3581.66666528
3613.20512689;3814.74358884;5711.15384928;4432.82051324;5088.33333514;2468.58973984;-0.00000896;-0.00000896;5581.41025926;4597.82051359;5712.69231082;4238.71794872;5685.64102870;4070.89743555;4204.35897429;3614.48717817
3644.87179362;3843.20512738;5683.71795178;4463.84615434;5190.12820715;2497.82050914;-0.00000896;-0.00000896;5586.28205413;4535.89743653;5515.64102835;4241.28205129;5552.30769509;4071.28205094;4203.84615378;3647.43589619
3676.28205010;3847.82051199;5648.33333633;4468.84615434;4929.23077069;2467.43589369;-0.00000896;-0.00000896;5552.30769509;4531.41025704;5974.35897805;4237.82051282;5844.35897777;4070.25640991;4202.30769224;3680.25640908
3682.56410139;3847.82051199;6012.05128581;4498.97435953;4894.23077062;2431.92307311;-0.00000896;-0.00000896;5521.53846425;4497.56410312;6007.30769606;4239.74358975;5847.56410597;4072.05128171;4175.89743576;3680.25640908
3714.23076812;3846.92307609;6109.35897832;4531.28205191;5256.41025857;2401.28204739;-0.00000896;-0.00000896;5515.76923348;4436.79487222;6044.61538844;4238.07692308;6106.28205525;4071.28205094;4175.64102551;3713.07692197
3747.69230665;3846.66666584;6078.20513210;4564.61538531;5321.79487409;2371.02563707;-0.00000896;-0.00000896;5487.94872059;4403.97435933;6040.12820895;4270.51282059;6105.89743986;4071.02564068;4173.58974345;3745.89743486
3781.53846057;3847.56410173;6078.20513210;4602.05128282;5383.07692551;2365.64102168;-0.00000896;-0.00000896;5517.30769502;4401.53846189;5809.87179821;4269.23076930;5881.79487527;4072.30769196;4175.38461525;3778.84615288
3812.05128115;3847.69230686;5783.33333660;4662.05128296;5455.64102822;2368.97435502;-0.00000896;-0.00000896;5481.66666931;4398.33333368;6145.51282455;4270.12820520;5943.33333695;4071.92307658;4172.30769217;3811.66666577
3840.51281968;3846.15384532;6075.25641415;4668.20512911;5581.53846439;2335.89743187;-0.00000896;-0.00000896;5451.53846411;4372.05128233;5813.20513154;4241.53846154;5942.94872157;4073.07692273;4171.92307679;3844.48717866
3843.84615302;3842.69230686;5849.87179828;4700.64102662;5452.56410514;2235.76922653;-0.00000896;-0.00000896;5450.38461796;4401.15384651;5881.53846502;4268.71794879;5943.07692669;4072.82051248;4170.25641012;3844.48717866
3842.05128122;3777.43589647;5849.74359315;4760.38461650;5320.12820743;2102.94871344;-0.00000896;-0.00000896;5452.69231027;4434.87179529;5816.53846488;4272.56410264;6012.05128581;4073.71794837;4169.10256397;3844.61538379
3841.02564020;3681.28205010;5976.92308061;4828.46153972;5454.48718206;2038.97435432;229.99999153;-0.00000896;5422.94872045;4431.41025683;6013.46154222;4270.64102571;5875.51282399;4074.74358940;4143.46153826;3844.61538379
3840.64102481;3582.30769092;5778.58974686;4893.20512960;4963.71795025;2200.64102134;-0.00000896;-0.00000896;5481.92307957;4274.10256418;5910.38461893;4300.25641040;5940.51282413;4075.38461504;4142.43589723;3844.74358891
3809.99999910;3547.30769085;5912.43590098;4925.64102710;5383.33333577;2403.58973970;-0.00000896;-0.00000896;5418.71795122;4168.71794858;5881.41025989;4300.76923091;5842.17949059;4075.51282017;4140.64102544;3811.92307602
3780.38461442;3577.56410118;5553.33333612;4930.64102710;4827.43589869;2531.15384254;0.76922181;-0.00000896;5291.15384838;4072.69230735;5453.07692565;4302.17948732;5450.51282309;4103.46153819;4137.94871774;3779.10256313
3779.74358877;3611.15384484;5647.05128504;4928.33333480;4894.74359114;2529.48717588;229.99999153;-0.00000896;5159.23077118;4009.61538413;5323.46154076;4300.76923091;5386.15384859;4103.97435870;4137.56410236;3779.10256313
3807.17948628;3615.76922945;5185.76923279;4925.12820659;4497.17948774;2429.35897054;229.99999153;-0.00000896;5028.07692475;3872.82051206;4961.92307846;4300.00000014;5256.41025857;4106.66666639;4137.94871774;3811.92307602
3808.84615295;3616.79487048;5158.84615580;4956.79487333;4960.25641179;2337.17948315;229.99999153;-0.00000896;4926.15384762;3777.82051185;5319.10256640;4300.64102578;5218.71795081;4107.94871767;4110.51282024;3811.92307602
3814.74358884;3649.61538337;4828.20512946;4963.84615538;4694.23077021;2368.71794476;229.99999153;-0.00000896;4826.28205254;3713.46153735;4764.48718060;4303.46153860;4733.97436002;4109.23076896;4108.97435870;3811.92307602
3844.87179404;3678.46153728;4694.35897534;4963.46153999;4402.05128240;2399.99999611;229.99999153;-0.00000896;4762.94871906;3616.66666535;4628.97435981;4302.17948732;4569.23076993;4110.38461511;4138.07692287;3844.74358891
3876.28205052;3711.92307582;4303.20512835;4959.10256564;4365.12820541;2364.23076527;229.99999153;-0.00000896;4733.58974464;3548.58974213;4405.12820548;4305.76923091;4333.71794893;4136.92307672;4106.79487152;3877.56410180
3905.64102495;3747.05128101;5225.76923286;4930.76923223;4891.02564242;2305.51281642;229.99999153;-0.00000896;4734.10256515;3481.53845994;5322.05128435;4305.76923091;5187.05128407;4137.94871774;4106.53846126;3910.38461469
3909.87179418;3782.05128108;4890.89743729;4961.02564256;4500.25641082;2365.64102168;229.99999153;-0.00000896;4661.92307783;3419.23076750;5025.00000167;4304.74358989;4925.25641172;4139.99999980;4105.12820485;3910.38461469
3940.89743528;3844.99999917;4534.10256473;4995.64102724;4268.84615392;2335.64102161;229.99999153;-0.00000896;4599.10256487;3386.79486999;4470.25641075;4305.25641040;4630.64102648;4139.61538441;4103.97435870;3943.33333271
3944.61538399;3907.82051213;4499.35897492;5025.89743757;4431.02564145;2337.17948315;229.99999153;-0.00000896;4530.64102627;3349.87179300;4564.61538531;4306.79487194;4534.35897499;4141.66666646;4103.20512793;3943.33333271
3973.84615329;3944.10256348;4697.69230867;5057.05128379;4597.17948795;2268.97435481;229.99999153;-0.00000896;4564.10256480;3287.05128004;4562.30769301;4332.94871816;4795.76923195;4168.97435884;4075.64102530;3976.15384560
3945.64102502;3976.41025586;4826.41025766;5092.56410437;4470.00000049;2269.35897019;229.99999153;-0.00000896;4599.35897513;3256.28204920;4828.20512946;4305.38461553;4731.15384720;4170.51282038;4077.82051248;3943.33333271
3939.87179425;4038.07692266;4632.69230853;5160.89743785;4664.74359065;2336.28204726;229.99999153;-0.00000896;4503.07692364;3250.76922869;4597.56410333;4306.53846168;4499.74359030;4173.46153833;4075.64102530;3943.46153784
3939.61538399;4103.33333306;4498.58974415;5256.15384831;4467.30769280;2403.07691919;229.99999153;-0.00000896;4370.25641054;3254.10256202;4530.12820576;4306.02564117;4399.23076958;4173.46153833;4077.56410222;3943.58974297
3942.82051220;4142.69230749;4663.71794963;5317.94872025;4599.61538538;2469.48717574;229.99999153;-0.00000896;4142.30769210;3255.64102356;4733.58974464;4306.53846168;4700.25641123;4202.17948711;4076.79487145;3943.58974297
3971.41025586;4207.69230763;4963.46153999;5320.00000230;4923.84615531;2435.12820131;229.99999153;-0.00000896;3907.17948649;3256.79486971;4825.12820638;4304.23076937;4996.15384776;4202.82051275;4102.56410229;3976.41025586
4005.38461490;4206.02564096;5321.92307922;5289.10256633;5089.48718130;2267.43589327;229.99999153;-0.00000896;3748.71794768;3286.92307491;5156.79487374;4303.97435912;5287.05128428;4206.41025634;4077.17948684;4009.23076875
4040.89743548;4204.23076917;5322.43589973;5256.66666882;5219.10256619;2173.07691870;229.99999153;-0.00000896;3676.66666549;3315.25640831;5383.84615628;4306.66666681;5253.58974575;4205.89743583;4077.05128171;4042.05128164
4103.58974332;4201.02564096;5024.35897603;5284.35897659;5091.92307873;2235.76922653;229.99999153;-0.00000896;3614.87179356;3317.05128011;5122.05128393;4306.02564117;5062.05128379;4234.61538462;4077.43589709;4107.69230742
4142.69230749;4203.97435891;4996.79487340;5317.05128435;5023.33333500;2337.82050879;229.99999153;-0.00000896;3583.97435759;3286.79486978;4896.53846293;4304.35897450;5054.87179661;4236.79487180;4077.43589709;4140.51282031
4207.30769224;4238.97435898;5091.79487361;5350.76923314;5186.28205330;2402.69230380;229.99999153;-0.00000896;3546.53846008;3253.84615177;4930.25641172;4306.41025655;4864.48718081;4236.92307693;4077.43589709;4206.15384609
4268.71794879;4300.76923091;6137.43590147;5418.58974610;6140.76923480;2464.74358600;229.99999153;-0.00000896;3546.28204983;3220.51281836;6010.64102940;4306.02564117;6137.43590147;4267.69230777;4102.69230742;4271.92307700
4301.53846168;4365.76923105;5650.00000299;5485.76923341;5749.74359294;2567.94871441;229.99999153;-0.00000896;3516.28204976;3185.89743368;5684.23077229;4302.17948732;5680.51282357;4270.00000007;4077.82051248;4304.74358989
4304.87179501;4434.87179529;5616.41025933;5547.43590022;5717.05128518;2697.82050956;229.99999153;-0.00000896;3417.43589570;3158.58974130;5714.23077236;4302.69230784;5683.97436204;4269.61538469;4103.20512793;4304.87179501
4302.82051296;4501.53846210;5779.74359301;5520.12820784;5881.92308040;2697.43589417;229.99999153;-0.00000896;3289.87179286;3189.74358752;5681.28205434;4303.07692322;5617.94872087;4272.94871802;4103.58974332;4304.87179501
4270.12820520;4564.48718019;5652.17949017;5453.97436155;5844.35897777;2730.76922758;229.99999153;-0.00000896;3152.69230540;3252.30769023;5651.41025940;4301.53846168;5717.56410569;4274.48717956;4104.61538434;4271.92307700
4241.41025641;4601.79487256;5879.74359322;5355.25641262;5948.58974721;2796.15384310;229.99999153;-0.00000896;2988.20512557;3286.41025440;5941.79487541;4302.82051296;5848.20513161;4301.66666681;4105.89743562;4238.97435898
4238.58974359;4634.23077007;5813.33333667;5257.69230985;5911.66667021;2797.30768925;229.99999153;-0.00000896;2895.76922792;3352.69230582;5781.15384942;4273.58974366;5813.33333667;4305.38461553;4106.15384588;4238.97435898
4237.82051282;4666.79487270;5882.17949066;5124.23077111;5975.64102933;2790.89743284;229.99999153;-0.00000896;2764.48717636;3418.97435724;5877.30769579;4273.20512828;5876.53846502;4305.38461553;4107.94871767;4238.84615385
4268.71794879;4699.87179585;5387.17948962;5061.66666841;5616.53846446;2630.89743250;229.99999153;-0.00000896;2598.97435550;3516.79487027;5683.71795178;4273.71794879;5389.23077167;4306.66666681;4107.56410229;4271.53846161
4301.53846168;4699.48718046;5026.92307859;5091.53846335;5056.53846328;2565.89743236;229.99999153;-0.00000896;2597.05127858;3550.38461393;4695.38461636;4272.82051289;4988.97436058;4333.46153867;4106.53846126;4304.35897450
4334.35897457;4695.64102662;5976.92308061;5090.25641207;6075.00000390;2730.38461219;229.99999153;-0.00000896;2626.41025301;3546.41025495;5912.30769586;4273.84615392;5913.33333688;4336.53846175;4108.84615357;4337.17948739
4334.48717970;4697.56410354;6072.30769620;5025.64102731;6204.48718366;2861.79486888;229.99999153;-0.00000896;2625.76922737;3517.94871642;6041.79487562;4271.28205136;6078.07692697;4335.25641047;4108.97435870;4337.17948739
4333.33333355;4726.66666771;6631.28205636;4927.17948864;6699.61538983;2895.76922792;-0.00000896;-0.00000896;2567.05127851;3584.23076784;6600.00000501;4270.25641033;6699.48718470;4337.94871816;4109.99999973;4337.05128226
4336.41025662;4734.23077028;6734.23077452;4891.79487319;6995.89744174;2830.38461240;-0.00000896;-0.00000896;2433.84615003;3616.28204997;6964.10256987;4271.79487187;6932.82051852;4337.94871816;4135.38461518;4337.05128226
4369.48717977;4763.46153958;5683.71795178;4893.97436037;5618.46154138;2793.20512515;229.99999153;-0.00000896;2364.99999604;3677.43589626;5483.20513085;4271.28205136;5617.94872087;4337.69230790;4136.02564082;4369.87179515
4400.51282086;4763.46153958;5422.43589994;4864.23077055;5550.89743868;2791.41025336;-0.00000896;-0.00000896;2395.89743201;3683.20512703;5451.92307950;4269.10256418;5384.74359218;4339.61538483;4136.53846133;4402.69230804
4400.89743625;4733.84615489;5915.64102919;4825.12820638;5913.33333688;2826.41025343;-0.00000896;-0.00000896;2401.92307304;3710.38461428;5749.74359294;4267.56410264;5711.53846467;4339.48717970;4139.99999980;4402.56410292
4399.35897471;4729.61538566;6400.89744049;4730.38461643;6432.94872261;2862.56409965;-0.00000896;-0.00000896;2401.02563714;3715.12820402;6599.61538962;4241.53846154;6471.53846627;4367.56410285;4137.82051262;4402.56410292
4399.23076958;4700.76923175;7388.84616052;4693.71794969;7451.28205810;2923.71794594;-0.00000896;-0.00000896;2432.94871413;3712.69230658;7292.30769877;4240.25641026;7352.30769891;4366.53846182;4135.76923056;4402.43589779
4400.64102599;4699.61538559;5482.56410521;4633.33333417;5547.17948996;2925.76922799;-0.00000896;-0.00000896;2436.66666285;3712.17948607;5779.10256737;4239.10256411;5612.94872087;4367.69230797;4138.84615364;4402.43589779
4401.41025676;4699.74359072;4004.87179439;4632.56410340;4629.87179571;2923.71794594;-0.00000896;-0.00000896;2532.69230408;3710.76922966;4204.61538455;4240.25641026;3906.92307623;4365.89743618;4140.89743569;4402.43589779
4401.53846189;4701.28205226;4502.94871851;4661.79487270;4761.66666778;2957.94871524;-0.00000896;-0.00000896;2567.94871441;3711.66666556;4601.79487256;4237.82051282;4500.76923133;4368.71794900;4139.61538441;4402.43589779
4371.66666695;4726.53846258;5258.33333549;4695.25641123;5455.38461796;2993.46153582;-0.00000896;-0.00000896;2597.82050935;3710.51281940;5219.35897645;4238.07692308;5349.87179724;4366.79487208;4139.35897415;4369.61538490
4339.48717970;4730.12820617;5356.79487416;4726.28205233;5388.58974603;3054.74358725;-0.00000896;-0.00000896;2599.35897089;3716.15384505;5120.64102752;4239.10256411;5385.12820756;4368.84615413;4140.38461518;4336.92307714
4305.25641040;4732.43589848;5849.48718290;4732.05128310;6172.69231180;3092.94871552;-0.00000896;-0.00000896;2563.84615031;3747.17948614;5907.94872150;4236.92307693;5876.79487527;4372.05128233;4141.53846133;4304.10256425
4273.33333341;4760.00000112;4727.82051387;4734.10256515;5088.46154027;3125.64102328;-0.00000896;-0.00000896;2498.07691940;3779.23076826;4832.17948843;4234.10256411;4597.17948795;4371.15384644;4141.79487159;4271.28205136
4271.66666674;4763.97436009;5061.41025815;4762.82051394;5323.20513050;3186.28204906;-0.00000896;-0.00000896;2368.84614989;3812.43589654;5158.46154041;4236.28205129;5122.69230957;4370.25641054;4142.17948697;4271.28205136
4300.76923091;4792.56410375;4464.74359023;4793.33333452;4793.07692426;3190.38461316;-0.00000896;-0.00000896;2333.58973956;3844.74358891;4438.58974401;4208.58974352;4497.82051338;4371.41025669;4142.30769210;4304.10256425
4306.15384630;4793.33333452;4568.58974429;4794.35897554;4963.46153999;3220.51281836;-0.00000896;-0.00000896;2332.82050879;3843.33333250;4698.84615482;4206.66666660;4531.92307755;4371.02564131;4143.46153826;4304.10256425
4307.17948732;4793.07692426;5387.17948962;4793.71794990;5452.94872052;3221.66666452;-0.00000896;-0.00000896;2267.17948301;3847.30769148;4957.30769384;4207.43589737;5192.05128407;4372.30769259;4168.71794858;4304.10256425
4305.38461553;4797.05128324;5481.15384880;4793.97436016;5684.87179793;3288.97435696;-0.00000896;-0.00000896;2036.41025176;3874.61538385;5743.84615705;4204.74358968;5387.94872038;4398.84615420;4168.84615371;4304.10256425
4304.87179501;4858.07692440;5289.61538684;4762.43589855;5613.84615677;3285.12820312;-0.00000896;-0.00000896;1779.35896915;3941.02564040;5251.28205344;4203.84615378;5121.28205316;4401.41025676;4168.84615371;4304.10256425
4299.48717963;4862.05128338;5057.30769405;4595.38461615;5485.89743854;3157.43589515;-0.00000896;-0.00000896;1513.46153270;4037.56410215;5120.64102752;4203.84615378;5258.97436113;4400.25641061;4169.61538448;4303.97435912
4267.43589751;4828.71794997;6605.00000501;4269.10256418;6404.23077382;3027.43589487;-0.00000896;-0.00000896;1247.94871163;4106.41025614;6764.87180023;4202.82051275;6375.12820965;4399.74359009;4143.33333313;4270.76923084
4268.58974366;4764.74359086;6012.05128581;3940.76923015;6502.43590223;3119.23076687;-0.00000896;-0.00000896;1250.64101932;4104.35897408;5880.25641373;4202.30769224;5947.43590105;4398.84615420;4170.51282038;4270.51282059
4239.74358975;4760.00000112;5547.05128483;3709.61538351;5878.97436245;3156.28204899;-0.00000896;-0.00000896;1516.15384039;4041.66666625;5551.28205407;4203.97435891;5516.79487451;4371.15384644;4171.15384602;4237.43589744
4173.97435884;4762.17948830;5193.33333535;3515.38461386;5681.66666973;3152.94871566;-0.00000896;-0.00000896;1773.84614864;4042.05128164;5319.87179717;4205.89743583;5193.33333535;4372.56410285;4171.28205115;4171.53846140
4077.43589709;4761.02564214;6203.58974776;3348.97435710;6142.94872198;3089.74358732;-0.00000896;-0.00000896;1975.38461059;4136.53846133;6040.76923459;4208.20512814;5745.89743910;4370.64102592;4172.30769217;4072.94871761
4008.97435849;4760.76923188;5317.43589973;3221.53845939;5584.23077208;3086.28204885;-0.00000896;-0.00000896;2136.92307248;4168.71794858;5056.66666841;4206.41025634;4958.84615538;4372.43589772;4172.94871781;4007.17948670
3972.30769176;4763.71794983;4171.92307679;3118.71794636;4207.17948711;3052.69230519;-0.00000896;-0.00000896;2206.28204698;4205.38461532;3908.33333264;4209.10256404;3945.51281989;4369.23076951;4173.71794858;3974.23076868
3943.46153784;4792.17948836;1152.82050629;3022.94871538;1352.43589132;2861.02563811;229.99999153;-0.00000896;2304.74358565;4271.92307700;1055.25640352;4234.10256411;1020.25640345;4367.30769259;4173.84615371;3941.41025579
3941.92307630;4792.17948836;1184.48717303;2990.64102300;1515.25640449;2725.12820194;229.99999153;-0.00000896;2501.66666299;4366.02564131;1216.53845515;4238.46153847;1411.28204531;4340.25641047;4176.15384602;3941.28205066
3943.71794810;4733.33333438;1219.10255771;2992.30768967;1450.89742999;2626.41025301;229.99999153;-0.00000896;2694.99999674;4406.02564138;1216.92307053;4239.61538462;1282.94871170;4340.38461560;4201.28205122;3941.28205066
3944.35897374;4696.41025739;1351.53845543;3020.89743333;1516.66666090;2531.53845793;229.99999153;-0.00000896;2791.53845848;4467.69230818;1313.07691690;4267.05128212;1352.56409645;4339.23076944;4202.05128199;3941.41025579
3971.28205073;4633.97435981;1579.99999438;3057.43589494;1612.94871239;2528.97435536;-0.00000896;-0.00000896;2861.92307401;4497.69230825;1287.69230144;4238.46153847;1384.87178883;4335.25641047;4202.69230763;3974.23076868
3976.15384560;4602.69230846;1448.33332743;3121.92307456;1615.12819957;2499.87179119;4.61537566;-0.00000896;2925.64102287;4501.53846210;1444.35896846;4268.97435905;1418.33332736;4334.35897457;4203.71794865;3974.23076868
4011.15384567;4598.46153923;1744.48717421;3217.56410041;1911.41025148;2465.25640651;229.99999153;-0.00000896;2990.51281788;4501.41025697;1777.69230248;4268.07692315;1649.10255862;4332.30769252;4204.10256404;4007.17948670
4071.53846119;4596.15384692;1871.02563603;3287.17948517;2008.58973887;2400.38461150;4.61537566;-0.00000896;3022.94871538;4535.25641089;1809.61537948;4271.79487187;1741.41025113;4307.56410271;4205.64102558;4072.94871761
4105.76923050;4567.56410326;2169.99999563;3351.41025454;2108.20512369;2370.51281656;229.99999153;-0.00000896;3120.64102328;4564.10256480;1943.33332847;4270.00000007;2002.43589271;4305.76923091;4206.28205122;4105.76923050
4108.58974332;4535.89743653;1977.05127726;3321.02563908;2040.89743125;2436.53845772;4.61537566;-0.00000896;3250.89743382;4568.20512890;2005.64102092;4271.02564110;2042.82050817;4305.64102578;4206.41025634;4105.76923050
4106.92307665;4531.28205191;2859.23076632;3253.20512612;2797.56409951;2498.97435530;229.99999153;-0.00000896;3190.12820291;4627.82051366;2729.61538142;4274.23076930;2889.61538177;4302.05128219;4204.99999993;4105.64102537
4137.82051262;4562.30769301;2434.35897054;3219.23076708;2562.17948364;2501.15384247;4.61537566;-0.00000896;3186.53845932;4661.15384706;2431.53845772;4272.69230777;2433.58973977;4300.64102578;4233.97435898;4138.46153826
4169.35897422;4569.10256480;2531.66666306;3191.41025419;2565.25640672;2533.07691947;229.99999153;-0.00000896;3382.69230589;4666.92307783;2436.79486798;4299.48717963;2494.87179119;4272.43589751;4209.10256404;4171.28205115
4176.15384602;4599.87179564;2303.71794462;3191.15384393;2170.64102127;2469.61538087;4.61537566;-0.00000896;3545.51281906;4698.71794969;2102.17948267;4274.61538469;2166.15384178;4272.94871802;4234.23076923;4171.28205115
4202.05128199;4628.58974443;2398.97435509;3190.12820291;2728.97435578;2367.17948322;229.99999153;-0.00000896;3678.84615267;4732.82051387;2629.48717609;4300.12820527;2431.66666285;4269.74358982;4234.48717949;4204.10256404
4201.41025634;4601.66666743;3285.64102363;3221.41025426;3381.92307512;2300.64102155;4.61537566;-0.00000896;3808.71794782;4792.94871913;3452.43589577;4273.46153853;3416.79487006;4269.61538469;4208.58974352;4204.10256404
4174.23076910;4596.79487256;3678.20512703;3253.97435689;4039.48717907;2305.38461129;229.99999153;-0.00000896;3943.07692246;4799.74359093;4005.89743541;4273.71794879;3778.84615288;4268.20512828;4235.64102564;4171.28205115
4169.10256397;4569.87179557;3217.05127990;3287.82051081;3351.28204941;2397.94871406;4.61537566;-0.00000896;3910.38461469;4792.82051401;3416.53845981;4301.28205142;3251.66666459;4239.61538462;4233.97435898;4171.41025628
4141.02564082;4600.25641102;3579.48717810;3316.66666472;3418.71794698;2297.82050872;229.99999153;-0.00000896;3978.97435842;4858.97436030;3026.79486923;4300.38461553;3415.51281878;4239.61538462;4237.05128206;4138.58974339
4141.92307672;4595.25641102;2792.30768925;3352.94871608;2922.30768953;2233.84614961;4.61537566;-0.00000896;4140.64102544;4896.53846293;3283.84615183;4300.12820527;3090.64102321;4236.02564103;4237.82051282;4138.58974339
4137.17948697;4564.61538531;3092.56410014;3413.33333160;3188.07692086;2206.92307262;229.99999153;-0.00000896;4202.43589737;4961.92307846;3052.82051032;4274.48717956;2988.46153582;4235.64102564;4238.07692308;4138.71794851
4077.56410222;4531.15384678;3022.69230513;3388.07692127;2992.82051018;2140.76922633;4.61537566;-0.00000896;4266.66666674;5026.79487347;2861.53845862;4273.20512828;2796.41025336;4234.87179488;4239.23076923;4072.94871761
4070.76923043;4496.66666723;4168.58974345;3417.17948545;4437.82051324;2041.66666201;229.99999153;-0.00000896;4304.48717963;5089.23077104;4438.71794914;4274.35897443;4201.79487173;4205.64102558;4237.94871795;4073.07692273
4042.56410215;4438.33333375;3151.92307463;3450.51281885;3447.82051116;2074.99999542;4.61537566;-0.00000896;4400.38461574;5120.64102752;3322.43589549;4274.74358982;3256.79486971;4206.28205122;4239.61538462;4040.25640984
4038.46153805;4402.82051317;3316.66666472;3517.05128053;3222.43589529;2134.48717504;229.99999153;-0.00000896;4370.76923105;5093.46154027;3380.51281871;4274.48717956;3385.51281871;4204.35897429;4238.71794872;4040.25640984
4010.25640977;4369.35897464;3319.61538267;3548.58974213;3585.38461400;2105.64102113;4.61537566;-0.00000896;4403.84615420;5124.87179675;3545.25640880;4272.43589751;3322.43589549;4202.17948711;4240.38461539;4007.56410208
4010.76923029;4337.43589765;4169.35897422;3611.15384484;4241.28205129;2107.94871344;229.99999153;-0.00000896;4500.51282107;5124.87179675;4043.71794830;4300.00000014;3944.87179425;4203.07692301;4238.07692308;4007.56410208
4038.97435856;4303.84615399;3813.20512731;3678.71794754;3879.48717873;2204.48717518;4.61537566;-0.00000896;4565.89743660;5088.71795053;4234.35897436;4300.12820527;4205.25641019;4176.28205115;4240.76923077;4040.51282010
4038.84615343;4299.87179501;4403.84615420;3716.41025530;4139.35897415;2171.41025204;229.99999153;-0.00000896;4599.10256487;5093.07692489;4076.28205094;4274.61538469;3910.12820444;4175.12820499;4240.76923077;4040.51282010
4041.53846113;4268.33333341;4236.15384616;3779.48717852;4267.17948725;2173.84614947;4.61537566;-0.00000896;4630.25641109;5092.17948899;4236.92307693;4272.56410264;4333.46153867;4173.20512807;4240.76923077;4040.51282010
4070.64102530;4240.12820513;4241.79487180;3841.92307609;4042.43589702;2205.38461108;229.99999153;-0.00000896;4599.23077000;5060.76923251;4236.15384616;4271.66666674;4238.97435898;4172.30769217;4240.89743590;4073.46153812
4076.15384581;4237.56410257;4273.97435905;3877.43589668;4336.41025662;2200.64102134;4.61537566;-0.00000896;4531.79487242;5058.33333507;4302.94871809;4270.76923084;4076.92307658;4172.82051269;4241.02564103;4073.46153812
4107.94871767;4208.46153840;4301.28205142;3905.89743521;4269.48717956;2202.94871364;229.99999153;-0.00000896;4602.17948795;5087.30769412;4398.20512856;4273.84615392;4171.28205115;4169.61538448;4241.15384616;4106.28205101
4141.92307672;4204.23076917;4172.56410243;3913.07692239;4269.61538469;2232.30768807;-0.00000896;-0.00000896;4663.58974450;5089.35897617;4169.61538448;4270.25641033;4205.76923070;4168.97435884;4241.02564103;4139.10256390
4171.53846140;4204.35897429;4634.10256494;3972.43589688;4500.38461594;2239.48717525;-0.00000896;-0.00000896;4667.82051373;5062.17948892;4464.35897485;4270.64102571;4795.12820631;4168.71794858;4241.02564103;4172.05128192
4203.07692301;4203.20512814;4569.48718019;3978.46153791;4631.53846238;2237.17948294;-0.00000896;-0.00000896;4700.76923175;5056.66666841;4433.20512863;4268.33333341;4532.30769294;4170.25641012;4238.33333334;4204.87179481
4202.69230763;4175.51282038;4205.89743583;3979.23076868;4236.28205129;2234.99999577;229.99999153;-0.00000896;4792.17948836;5056.41025815;4465.76923126;4270.64102571;4399.74359009;4169.35897422;4241.41025641;4204.87179481
4201.92307686;4171.66666653;4398.97435933;4007.43589695;4403.07692343;2233.20512397;229.99999153;-0.00000896;4824.87179613;5056.79487354;3978.33333278;4270.64102571;4044.87179446;4170.38461525;4241.28205129;4204.87179481
4175.76923063;4169.48717935;4208.33333327;4040.51282010;4237.43589744;2203.71794441;229.99999153;-0.00000896;4859.48718081;5054.35897610;4633.07692391;4269.74358982;4398.58974394;4171.28205115;4240.64102564;4172.05128192
4175.89743576;4140.38461518;4137.05128185;4106.53846126;4173.58974345;2199.48717518;229.99999153;-0.00000896;4897.30769370;5054.74359148;4174.10256397;4270.89743597;4271.79487187;4170.51282038;4266.66666674;4172.17948704
4174.87179474;4138.58974339;3972.30769176;4171.66666653;4301.28205142;2200.64102134;-0.00000896;-0.00000896;4960.89743743;5026.66666834;4499.10256466;4272.30769238;4135.51282031;4169.74358961;4241.02564103;4172.17948704
4175.89743576;4135.38461518;4207.30769224;4267.69230777;4399.35897471;2169.10255973;-0.00000896;-0.00000896;4991.41025801;5028.71795039;4336.53846175;4271.41025648;4530.51282114;4169.74358961;4239.48717949;4172.30769217
4202.43589737;4108.20512793;4303.20512835;4340.00000021;4696.92307790;2168.58973922;-0.00000896;-0.00000896;4988.97436058;5025.64102731;4367.56410285;4271.79487187;4140.64102544;4143.07692287;4240.12820513;4205.25641019
4206.28205122;4106.79487152;4566.79487249;4464.10256459;4468.33333382;2168.71794434;-0.00000896;-0.00000896;4930.64102710;5022.82051449;4496.92307748;4273.20512828;4602.43589820;4170.12820499;4241.53846154;4205.38461532
4237.56410257;4103.07692280;4431.02564145;4566.28205198;4696.92307790;2137.56409812;-0.00000896;-0.00000896;4925.00000146;5022.17948885;4470.25641075;4272.69230777;4104.35897408;4168.71794858;4240.76923077;4238.20512821
4269.35897443;4075.64102530;4438.46153888;4666.02564193;4470.76923126;2107.05127754;-0.00000896;-0.00000896;4895.12820652;4996.15384776;4563.84615454;4269.87179495;4631.15384699;4170.25641012;4239.87179488;4271.15384623
4300.00000014;4071.28205094;4203.46153840;4733.84615489;4406.02564138;2071.79486721;-0.00000896;-0.00000896;4861.66666799;4991.92307853;4532.17948781;4270.64102571;4102.56410229;4171.15384602;4241.02564103;4304.10256425
4334.10256431;4039.35897395;4368.07692336;4863.07692440;4301.79487194;2101.66666215;-0.00000896;-0.00000896;4829.48718074;4989.87179647;4268.97435905;4272.82051289;4532.94871858;4172.43589730;4239.48717949;4337.05128226
4368.71794900;4007.17948670;4568.33333403;4993.71795032;4732.94871899;2104.74358523;-0.00000896;-0.00000896;4795.00000119;4960.76923230;4537.05128268;4272.56410264;4857.69230902;4175.25641012;4239.48717949;4370.00000028
4404.23076958;3978.07692252;4630.89743674;5120.76923265;4530.64102627;2071.92307234;-0.00000896;-0.00000896;4726.41025746;4956.53846307;4470.76923126;4299.48717963;4633.97435981;4202.30769224;4239.61538462;4402.94871830
4438.46153888;3973.33333278;4824.74359100;5256.41025857;4794.10256529;2073.97435439;-0.00000896;-0.00000896;4596.66666743;4897.94871934;4960.76923230;4273.46153853;4931.15384762;4202.82051275;4239.61538462;4435.89743632
4467.82051331;3945.89743528;4764.23077035;5389.35897679;4728.46153951;2107.43589292;-0.00000896;-0.00000896;4497.43589800;4925.64102710;5058.84615559;4299.74358989;4862.56410389;4203.33333327;4239.23076923;4468.84615434
4468.20512870;3942.43589681;5060.00000174;5485.38461803;4895.51282191;2133.58973915;-0.00000896;-0.00000896;4401.66666702;4926.15384762;5057.69230943;4301.28205142;4898.33333473;4206.79487173;4236.28205129;4468.84615434
4470.25641075;3940.12820451;5256.02564318;5550.64102842;5190.64102766;2138.33332889;-0.00000896;-0.00000896;4270.51282059;4894.74359114;5221.15384824;4301.41025655;5121.28205316;4235.38461539;4237.56410257;4468.97435946
4501.79487235;3939.48717887;5289.74359197;5645.76923376;5292.05128428;2201.92307262;-0.00000896;-0.00000896;4041.66666625;4860.89743722;5286.15384838;4302.05128219;5388.46154090;4237.94871795;4239.74358975;4501.92307748
4533.58974422;3912.43589674;5120.64102752;5715.89743903;4927.69230916;2266.41025224;-0.00000896;-0.00000896;3847.56410173;4792.30769349;5187.94871997;4272.30769238;5185.76923279;4239.48717949;4236.66666667;4534.74359037
4536.02564165;3907.56410187;5089.87179668;5717.94872108;5089.74359155;2369.99999604;-0.00000896;-0.00000896;3778.07692211;4732.69230874;5191.28205330;4274.74358982;5255.64102780;4267.82051289;4236.02564103;4534.74359037
4533.33333396;3907.43589674;5417.94872045;5651.53846453;5449.48718206;2396.66666278;-0.00000896;-0.00000896;3614.23076791;4727.30769335;5220.25641234;4300.00000014;5318.46154076;4270.00000007;4237.82051282;4534.74359037
4530.64102627;3909.23076854;4956.92307846;5614.35897728;5088.46154027;2400.12820124;-0.00000896;-0.00000896;3485.64102405;4695.00000098;5450.38461796;4272.82051289;5055.51282225;4273.46153853;4234.61538462;4534.61538524
4529.74359037;3910.76923008;5124.61538650;5551.15384894;5158.71795067;2431.53845772;-0.00000896;-0.00000896;3349.99999813;4632.82051366;4864.61538594;4273.84615392;4923.46153992;4301.92307707;4236.15384616;4534.61538524
4531.92307755;3912.56410187;4828.84615510;5487.69231034;4923.58974505;2496.41025273;-0.00000896;-0.00000896;3219.23076708;4566.28205198;4795.51282170;4271.92307700;4926.15384762;4303.07692322;4208.97435891;4534.48718012
4535.00000063;3912.82051213;5448.84615642;5420.51282302;5387.05128449;2596.79486832;-0.00000896;-0.00000896;3092.30768988;4502.69230825;5190.12820715;4271.92307700;5323.46154076;4303.46153860;4208.33333327;4534.48718012
4536.53846217;3944.74358912;5876.66667014;5351.66666903;5715.89743903;2661.66666334;-0.00000896;-0.00000896;2957.69230499;4497.30769287;5876.28205476;4269.48717956;5941.92308054;4332.69230790;4207.43589737;4534.35897499
4563.46153916;4004.48717900;6237.05128629;5258.97436113;6111.92308089;2631.53845814;-0.00000896;-0.00000896;2828.07692009;4470.51282100;5945.00000362;4270.12820520;5979.23077292;4333.07692329;4208.46153840;4567.17948788
4563.97435967;4011.92307644;5809.74359308;5186.41025843;5747.43590064;2632.30768891;229.99999153;-0.00000896;2790.38461233;4467.69230818;5914.23077278;4241.53846154;5911.53846509;4333.07692329;4206.66666660;4567.05128275
4565.64102634;4041.02564061;6108.84615781;5088.33333514;6073.71795261;2666.15384282;-0.00000896;-0.00000896;2759.74358662;4433.71794914;6074.23077313;4266.66666674;6106.41026037;4338.07692329;4206.28205122;4566.92307762
4565.51282121;4041.92307651;6204.74359392;4993.20512981;6177.43590154;2692.30768905;-0.00000896;-0.00000896;2597.94871448;4399.74359009;6205.89744007;4240.89743590;6209.74359392;4338.33333355;4205.38461532;4566.92307762
4566.53846224;4044.23076882;6570.38462032;4961.02564256;6438.58974825;2597.82050935;-0.00000896;-0.00000896;2496.92307324;4366.92307720;6335.38461984;4238.71794872;6337.30769676;4337.17948739;4204.87179481;4566.79487249
4566.28205198;4073.84615350;6073.46154236;4958.84615538;6012.17949094;2695.38461212;229.99999153;-0.00000896;2463.58973984;4306.79487194;6242.05128629;4239.23076923;6010.89743965;4338.84615406;4202.94871788;4566.79487249
4563.71794942;4103.20512793;5977.69231138;4897.56410396;5749.23077243;2796.41025336;229.99999153;-0.00000896;2429.74358593;4274.10256418;5912.69231124;4235.64102564;5946.41026003;4367.05128233;4203.07692301;4566.79487249
4530.89743653;4110.64102537;6109.87179884;4766.41025753;6007.30769606;2828.07692009;229.99999153;-0.00000896;2366.79486784;4241.92307693;6011.41026017;4236.41025641;6111.41026037;4365.12820541;4201.41025634;4533.84615448
4501.28205184;4141.41025621;6338.20513266;4664.10256501;6178.07692718;2830.12820214;229.99999153;-0.00000896;2335.89743187;4234.10256411;6271.28205559;4208.33333327;6208.46154263;4365.64102592;4202.17948711;4500.89743646
4499.61538518;4173.71794858;6367.17949170;4601.79487256;6406.41026100;2860.89743298;229.99999153;-0.00000896;2333.33332931;4202.05128199;6373.58974811;4206.92307686;6406.28205587;4366.28205156;4175.25641012;4500.89743646
4502.05128261;4234.23076923;6043.20513203;4597.82051359;5875.25641373;2891.66666382;229.99999153;-0.00000896;2336.41025238;4135.51282031;5876.66667014;4237.30769231;5842.30769572;4367.94871823;4201.53846147;4500.89743646
4501.79487235;4271.66666674;5715.12820826;4596.02564179;5488.84615649;2955.64102293;229.99999153;-0.00000896;2370.25640630;4074.35897402;5777.94872122;4234.87179488;5718.84615698;4368.58974387;4201.41025634;4500.89743646
4499.87179543;4334.87179508;5487.82051546;4563.33333403;5388.71795115;2994.23076659;229.99999153;-0.00000896;2396.28204739;4071.28205094;5647.43590043;4234.10256411;5450.00000257;4369.61538490;4201.02564096;4500.76923133
4496.92307748;4398.46153881;5386.15384859;4529.48718012;5160.51282246;2991.41025377;229.99999153;-0.00000896;2336.28204726;4071.02564068;5319.35897666;4207.05128199;5384.61538705;4369.48717977;4175.76923063;4500.76923133
4496.79487235;4438.84615427;5453.33333591;4497.94871851;5388.33333577;3021.79486923;229.99999153;-0.00000896;2298.97435488;4011.79487131;5484.23077188;4207.82051275;5286.66666889;4369.74359003;4175.76923063;4500.76923133
4497.82051338;4503.46153902;5027.43589911;4463.71794921;4928.46153992;3056.92307443;229.99999153;-0.00000896;2297.82050872;4006.79487131;4602.30769308;4207.05128199;4898.20512960;4371.53846182;4175.64102551;4500.76923133
4496.66666723;4566.28205198;4828.07692433;4403.33333368;4698.84615482;3022.05127948;229.99999153;-0.00000896;2365.25640630;4040.38461497;4894.10256550;4208.58974352;4632.82051366;4369.61538490;4173.97435884;4500.64102620
4470.25641075;4596.79487256;5286.02564325;4372.43589772;5055.76923251;2990.25640762;229.99999153;-0.00000896;2432.56409875;4040.76923036;5220.89743799;4205.51282045;5192.30769433;4372.05128233;4175.64102551;4467.82051331
4466.02564152;4630.25641109;5224.35897645;4398.46153881;5058.33333507;2989.99999736;229.99999153;-0.00000896;2434.61538080;4043.07692266;5094.23077104;4203.20512814;5349.74359211;4372.56410285;4175.51282038;4467.82051331
4463.71794921;4660.51282142;5093.97436078;4404.87179522;4925.51282198;3026.66666410;229.99999153;-0.00000896;2396.15384227;4069.99999966;5185.89743792;4205.12820506;5026.28205295;4371.02564131;4175.64102551;4467.82051331
4438.84615427;4695.89743687;4630.89743674;4436.66666709;4793.71794990;3087.56410014;229.99999153;-0.00000896;2396.15384227;4044.99999959;4600.00000077;4204.87179481;4696.66666764;4372.43589772;4175.51282038;4435.00000042
4436.02564145;4729.10256515;4925.51282198;4431.28205170;4894.87179627;3118.07692072;229.99999153;-0.00000896;2434.74358593;4070.51282017;4864.10256543;4205.38461532;4962.30769384;4397.94871830;4176.28205115;4435.00000042
4403.58974394;4762.17948830;4991.79487340;4399.23076958;5090.76923258;3120.76922841;229.99999153;-0.00000896;2468.71794497;4073.58974325;5091.92307873;4204.61538455;5122.94871983;4371.92307720;4174.23076910;4402.17948753
4368.33333362;4798.20512939;5419.74359225;4368.20512849;5324.48718178;3151.53845925;229.99999153;-0.00000896;2369.99999604;4105.89743562;5224.61538670;4204.99999993;5093.97436078;4372.56410285;4201.15384609;4369.35897464
4365.64102592;4859.48718081;4403.97435933;4337.05128226;4239.61538462;3126.02563867;229.99999153;-0.00000896;2270.25640609;4110.51282024;4372.30769259;4201.92307686;4529.74359037;4372.17948746;4176.15384602;4369.35897464
4336.41025662;4893.71795011;4042.94871754;4303.07692322;4631.15384699;3059.10256160;229.99999153;-0.00000896;2266.92307276;4173.58974345;4468.58974408;4202.05128199;4268.97435905;4399.10256445;4201.79487173;4336.41025662
4307.56410271;4896.92307832;4175.12820499;4241.41025641;4401.53846189;3056.92307443;229.99999153;-0.00000896;2266.66666250;4240.25641026;4432.43589786;4176.15384602;4105.64102537;4398.71794907;4201.28205122;4303.58974373
4303.71794886;4925.89743736;4792.05128324;4204.99999993;4859.48718081;3085.89743347;229.99999153;-0.00000896;2265.64102148;4241.79487180;4863.07692440;4201.79487173;4727.43589848;4398.58974394;4202.43589737;4303.58974373
4269.23076930;4930.38461685;4861.79487312;4139.10256390;4732.56410361;3022.56410000;229.99999153;-0.00000896;2305.51281642;4273.84615392;4732.43589848;4174.23076910;4630.25641109;4398.20512856;4202.82051275;4270.64102571
4237.05128206;4956.66666820;4534.48718012;4106.28205101;4956.53846307;2994.61538198;229.99999153;-0.00000896;2336.15384213;4306.02564117;4536.02564165;4176.15384602;4728.07692412;4372.82051310;4175.89743576;4237.82051282
4176.15384602;4958.84615538;3907.69230700;4072.43589709;4240.38461539;3020.76922820;229.99999153;-0.00000896;2363.33332938;4369.61538490;4272.56410264;4202.30769224;4140.51282031;4398.33333368;4203.84615378;4172.17948704
4141.28205108;4958.07692461;4234.35897436;4040.38461497;4337.30769252;2991.15384352;229.99999153;-0.00000896;2428.84615003;4436.28205170;3840.76922994;4171.79487166;4240.76923077;4372.69230797;4204.61538455;4139.23076903
4102.69230742;4959.10256564;4069.99999966;4007.56410208;4170.51282038;2989.61538198;229.99999153;-0.00000896;2434.99999618;4498.84615441;4202.43589737;4173.97435884;4175.89743576;4372.05128233;4205.76923070;4106.41025614
4039.61538420;4957.94871948;4305.12820527;3975.64102509;4208.46153840;2928.33333056;229.99999153;-0.00000896;2464.23076548;4569.74359044;3814.87179397;4174.10256397;4201.79487173;4398.46153881;4207.43589737;4040.76923036
3977.82051227;4930.51282198;3946.53846092;3945.89743528;4302.82051296;2927.56409979;229.99999153;-0.00000896;2435.12820131;4633.20512904;4332.43589765;4201.02564096;3846.53846071;4370.12820541;4207.05128199;3975.12820458
3943.84615322;4927.69230916;3383.20512640;3945.12820451;3254.35897228;2927.56409979;229.99999153;-0.00000896;2401.66666278;4696.41025739;3514.10256258;4174.48717935;3449.87179321;4370.25641054;4234.87179488;3942.30769169
3912.82051213;4923.46153992;3478.97435738;3939.87179425;3550.89743444;2861.79486888;229.99999153;-0.00000896;2401.53845765;4792.30769349;3519.35897283;4176.15384602;3550.89743444;4370.25641054;4234.23076923;3909.48717880
3906.41025572;4890.38461678;3581.79487041;3907.94871726;3582.17948579;2827.05127907;229.99999153;-0.00000896;2463.71794497;4892.43589883;3513.97435745;4174.10256397;3517.05128053;4367.17948746;4236.28205129;3909.35897367
3875.76923001;4830.38461664;3483.84615225;3877.82051206;3582.69230631;2860.51281760;7.94870899;-0.00000896;2434.48717567;4923.58974505;3417.30769057;4174.61538448;3383.71794692;4368.58974387;4235.89743590;3876.53846078
3873.71794796;4798.07692426;3483.46153687;3847.82051199;3545.38461393;2891.92307408;1.02563207;-0.00000896;2403.07691919;4989.35897596;3418.20512647;4174.87179474;3255.51281843;4369.10256438;4237.56410257;3876.53846078
3847.94871712;4795.38461657;3088.58974116;3843.46153763;3351.66666479;2795.76922772;229.99999153;-0.00000896;2402.69230380;5055.76923251;3252.69230561;4174.35897422;2862.05127914;4368.07692336;4239.23076923;3843.71794789
3875.25640950;4760.51282163;3052.56410007;3814.10256320;3216.66666452;2792.56409951;1.02563207;-0.00000896;2402.17948329;5120.25641214;3123.71794636;4173.20512807;2961.53845883;4366.28205156;4238.84615385;3876.53846078
3880.38461462;4727.17948823;3517.56410104;3840.12820430;3546.79487034;2860.64102273;-0.00000896;-0.00000896;2532.43589383;5126.28205316;3349.48717761;4175.12820499;3319.48717755;4366.79487208;4239.74358975;3876.53846078
3877.43589668;4695.64102662;3282.05128004;3780.51281954;3416.41025468;2894.23076639;-0.00000896;-0.00000896;2696.92307366;5156.02564298;3254.35897228;4175.89743576;3385.38461358;4366.66666695;4240.38461539;3876.41025565
3841.92307609;4664.87179578;4304.10256425;3742.69230665;4627.69230853;2891.53845869;-0.00000896;-0.00000896;2694.48717623;5190.76923279;4598.20512897;4174.35897422;4236.79487180;4366.28205156;4241.15384616;3843.58974276
3812.82051192;4660.76923168;3583.97435759;3713.07692197;3745.64102460;2925.76922799;-0.00000896;-0.00000896;2661.02563769;5258.58974575;3544.87179342;4176.15384602;3812.56410166;4339.74358996;4266.66666674;3810.76922987
3811.53846064;4660.51282142;3387.56410076;3711.15384505;3679.48717831;2926.28204851;-0.00000896;-0.00000896;2728.84615065;5254.48718165;3582.69230631;4201.02564096;3319.48717755;4338.58974380;4267.56410264;3810.76922987
3809.23076833;4634.23077007;3221.92307477;3680.89743472;3453.46153680;2856.15384324;-0.00000896;-0.00000896;2762.69230457;5319.48718178;3381.79486999;4175.89743576;3289.74358773;4335.76923098;4268.58974366;3810.76922987
3814.35897346;4602.30769308;3877.05128129;3683.84615267;4043.46153805;2855.38461247;-0.00000896;-0.00000896;2855.51281760;5355.00000237;4209.10256404;4201.92307686;3908.84615316;4337.82051303;4270.00000007;3810.76922987
3814.87179397;4598.33333410;3250.89743382;3709.48717838;3483.71794712;2958.20512550;-0.00000896;-0.00000896;2959.23076652;5356.15384852;3284.35897235;4202.05128199;3190.76922855;4338.07692329;4269.87179495;3810.76922987
3813.07692218;4601.02564179;3549.35897290;3678.33333216;3451.53845987;2959.23076652;-0.00000896;-0.00000896;2987.43589480;5416.66666917;3417.69230596;4174.99999986;3612.05128073;4335.51282073;4271.53846161;3810.76922987
3809.87179397;4602.56410333;3481.41025482;3647.56410132;3678.46153728;2830.64102266;-0.00000896;-0.00000896;2987.94871531;5481.28205393;3550.89743444;4175.38461525;3484.35897276;4334.48717970;4272.56410264;3810.64102474
3811.53846064;4599.35897513;3451.66666500;3645.89743465;3414.35897263;2761.79486867;-0.00000896;-0.00000896;3053.58974109;5546.92307971;3353.84615197;4203.46153840;3515.12820360;4307.56410271;4272.43589751;3810.64102474
3842.30769148;4564.10256480;3125.38461303;3678.58974241;3351.66666479;2792.94871490;-0.00000896;-0.00000896;3122.82051046;5550.25641304;3352.30769044;4172.69230756;3251.15384407;4306.79487194;4300.51282066;3843.58974276
3873.07692232;4531.66666730;2727.56409937;3710.76922966;2724.74358655;2857.05127914;-0.00000896;-0.00000896;3190.51281829;5547.56410535;2494.61538094;4203.46153840;2727.56409937;4307.05128219;4273.33333341;3876.41025565
3878.71794796;4503.07692364;3778.07692211;3716.28205017;3905.89743521;2829.35897137;-0.00000896;-0.00000896;3220.38461323;5580.76923362;3682.94871677;4176.02564089;3741.79487076;4306.41025655;4300.38461553;3876.41025565
3909.74358905;4499.61538518;3152.30769002;3746.15384512;3186.41025419;2856.41025350;-0.00000896;-0.00000896;3286.66666466;5584.48718234;3151.92307463;4203.97435891;3191.41025419;4302.56410271;4299.61538476;3909.23076854
3939.99999938;4496.66666723;3551.15384470;3780.64102467;3549.74358829;2893.46153562;-0.00000896;-0.00000896;3382.82051102;5552.94872073;3451.53845987;4204.35897429;3450.25640859;4302.30769245;4299.87179501;3942.05128143
3939.74358912;4497.56410312;3093.20512578;3810.76922987;3348.33333146;2895.76922792;-0.00000896;-0.00000896;3450.64102398;5613.20513113;3153.58974130;4203.84615378;2953.84615114;4301.28205142;4301.02564117;3942.17948656
3907.82051213;4500.25641082;3420.64102391;3814.61538372;3447.30769064;2826.92307394;-0.00000896;-0.00000896;3447.17948552;5645.76923376;3320.76922883;4202.17948711;3416.66666493;4300.64102578;4301.41025655;3909.35897367
3907.82051213;4471.15384664;3320.76922883;3876.28205052;3547.94871649;2758.71794559;-0.00000896;-0.00000896;3385.25640845;5717.94872108;3584.35897297;4175.25641012;3479.48717789;4300.25641040;4301.28205142;3909.35897367
3939.61538399;4465.64102613;3580.89743451;3940.89743528;3709.61538351;2762.94871483;-0.00000896;-0.00000896;3417.56410083;5783.07692635;3418.71794698;4201.02564096;3584.61538323;4274.74358982;4301.79487194;3942.30769169
3973.71794817;4431.66666709;4010.64102516;3977.94871740;3944.23076861;2792.17948413;-0.00000896;-0.00000896;3482.56410097;5813.46154180;4405.76923112;4174.87179474;4071.28205094;4273.71794879;4305.00000014;3975.12820458
4004.35897388;4400.51282086;4171.02564089;4009.35897388;4634.23077007;2797.56409951;-0.00000896;-0.00000896;3516.92307540;5813.07692642;4530.38461601;4202.05128199;4366.28205156;4273.71794879;4302.82051296;4007.94871747
4038.71794830;4365.64102592;3711.53846043;4043.07692266;3709.74358864;2862.30768939;-0.00000896;-0.00000896;3545.76922931;5814.87179821;3611.66666535;4202.94871788;3811.28205038;4274.74358982;4303.71794886;4040.76923036
4043.97435856;4334.35897457;4173.46153833;4102.82051255;4140.89743569;2893.07692023;-0.00000896;-0.00000896;3551.15384470;5815.25641360;4334.87179508;4174.48717935;4301.66666681;4273.58974366;4303.58974373;4040.89743548
4073.71794837;4303.07692322;3878.58974283;4137.82051262;4206.41025634;2888.46153562;229.99999153;-0.00000896;3613.33333202;5846.15384956;4241.02564103;4174.99999986;3779.48717852;4273.07692315;4303.46153860;4073.71794837
4102.82051255;4270.51282059;4241.15384616;4172.56410243;4037.43589702;2860.51281760;229.99999153;-0.00000896;3644.99999875;5849.35897777;3944.10256348;4205.12820506;4660.64102655;4299.87179501;4303.58974373;4106.53846126
4107.82051255;4237.43589744;4044.87179446;4236.53846154;4404.48717984;2858.71794580;229.99999153;-0.00000896;3643.20512696;5876.28205476;4368.20512849;4202.17948711;3841.66666584;4272.94871802;4302.82051296;4106.66666639
4139.48717928;4204.48717942;4271.28205136;4301.15384630;4336.02564124;2921.92307415;229.99999153;-0.00000896;3613.07692176;5847.82051623;4042.43589702;4201.66666660;4368.97435926;4272.94871802;4303.71794886;4139.48717928
4171.15384602;4175.64102551;4205.12820506;4340.25641047;4272.30769238;2958.84615114;-0.00000896;-0.00000896;3584.87179349;5813.07692642;4171.92307679;4174.48717935;4271.53846161;4271.92307700;4301.28205142;4172.43589730
4172.56410243;4175.76923063;4106.79487152;4371.92307720;4266.92307700;2958.46153576;-0.00000896;-0.00000896;3585.38461400;5813.07692642;4431.92307734;4174.87179474;4069.74358940;4271.92307700;4304.10256425;4172.43589730
4176.02564089;4173.58974345;4103.20512793;4401.66666702;4073.58974325;2923.84615107;229.99999153;-0.00000896;3544.61538316;5844.23077264;3780.51281954;4175.25641012;4369.74359003;4271.79487187;4303.33333348;4172.43589730
4203.07692301;4143.20512800;3782.05128108;4434.61538504;4103.07692280;2888.46153562;-0.00000896;-0.00000896;3544.61538316;5848.71795213;4405.38461574;4174.23076910;3774.87179390;4272.94871802;4303.71794886;4205.25641019
4204.99999993;4139.61538441;4075.38461504;4464.61538511;4300.64102578;2894.23076639;229.99999153;-0.00000896;3544.99999854;5849.35897777;4203.84615378;4174.74358961;4037.82051241;4299.87179501;4303.33333348;4205.38461532
4204.48717942;4108.58974332;4569.48718019;4467.69230818;4599.10256487;2923.97435620;-0.00000896;-0.00000896;3546.41025495;5848.46154187;4371.53846182;4173.33333320;4338.07692329;4272.30769238;4302.17948732;4205.38461532
4175.64102551;4103.20512793;4136.79487159;4467.56410305;4365.25641054;2921.79486902;229.99999153;-0.00000896;3485.38461379;5881.66667014;4273.84615392;4176.28205115;4072.94871761;4273.46153853;4303.84615399;4172.56410243
4174.61538448;4070.12820478;4530.25641089;4466.53846203;4600.89743667;2858.58974068;-0.00000896;-0.00000896;3448.71794705;5912.94872150;4334.35897457;4202.94871788;4239.10256411;4273.33333341;4303.58974373;4172.56410243
4201.53846147;4010.25640977;4270.25641033;4468.71794921;4433.20512863;2795.12820207;229.99999153;-0.00000896;3449.23076757;5947.17949080;4371.92307720;4175.89743576;4137.30769210;4274.48717956;4303.20512835;4205.38461532
4204.61538455;3972.17948663;4660.51282142;4501.66666723;4726.15384720;2761.15384303;-0.00000896;-0.00000896;3450.89743423;5977.17949087;4598.97435974;4201.41025634;4337.94871816;4299.87179501;4304.23076937;4205.38461532
4235.12820513;3905.64102495;4175.89743576;4562.56410326;4303.33333348;2763.20512508;229.99999153;-0.00000896;3450.89743423;5979.61538830;4371.66666695;4173.20512807;4135.89743569;4273.97435905;4303.07692322;4238.20512821
4267.82051289;3840.64102481;4793.71794990;4600.25641102;4799.74359093;2796.92307387;-0.00000896;-0.00000896;3452.43589577;5948.20513182;4336.92307714;4173.97435884;4334.23076944;4300.38461553;4302.69230784;4271.15384623
4272.17948725;3778.71794775;4011.92307644;4635.51282135;4500.00000056;2857.56409965;229.99999153;-0.00000896;3484.35897276;5879.74359322;4597.69230846;4201.28205122;4372.30769259;4299.61538476;4302.05128219;4271.15384623
4270.76923084;3745.89743486;4530.89743653;4667.94871886;4664.10256501;2891.02563818;-0.00000896;-0.00000896;3483.84615225;5813.71795206;4437.94871837;4173.46153833;4496.92307748;4274.74358982;4302.43589758;4271.15384623
4269.87179495;3716.02563992;4694.48718046;4726.79487284;4923.33333480;2861.41025350;229.99999153;-0.00000896;3417.43589570;5779.23077250;4865.00000132;4175.64102551;4761.02564214;4301.02564117;4301.28205142;4271.28205136
4271.28205136;3709.99999889;4530.25641089;4759.61538573;4536.79487242;2860.12820221;-0.00000896;-0.00000896;3353.07692120;5780.51282378;4270.38461546;4201.41025634;4699.35897534;4300.89743604;4301.41025655;4271.28205136
4299.87179501;3681.02563985;4629.48718032;4765.25641137;4794.48718067;2863.20512529;229.99999153;-0.00000896;3315.64102370;5716.41025954;4401.41025676;4204.48717942;4433.71794914;4301.53846168;4300.51282066;4304.10256425
4304.61538476;3649.87179362;4727.69230874;4797.82051401;4727.69230874;2861.28204837;-0.00000896;-0.00000896;3289.61538260;5680.00000306;4826.02564228;4201.53846147;4627.69230853;4304.35897450;4299.61538476;4304.10256425
4303.33333348;3616.92307561;4762.56410368;4824.87179613;4693.84615482;2890.12820228;229.99999153;-0.00000896;3285.64102363;5652.43590043;4600.38461615;4203.71794865;4534.10256473;4302.82051296;4299.74358989;4304.10256425
4273.33333341;3612.05128073;5122.69230957;4796.79487298;5127.56410444;2894.10256126;-0.00000896;-0.00000896;3190.51281829;5646.53846453;5191.66666869;4201.53846147;5028.33333500;4303.71794886;4273.58974366;4271.28205136
4273.46153853;3581.53846015;5089.48718130;4766.66666778;4896.02564242;2861.92307401;229.99999153;-0.00000896;3120.25640790;5620.25641318;4989.23077083;4201.15384609;4928.07692454;4305.00000014;4273.71794879;4271.28205136
4299.87179501;3551.28204983;5160.76923272;4733.71794976;4695.64102662;2823.20512522;-0.00000896;-0.00000896;3058.33333084;5616.92307985;5153.33333528;4204.48717942;5122.82051470;4306.79487194;4272.94871802;4304.10256425
4305.00000014;3514.61538309;4827.43589869;4731.53846258;4891.41025780;2732.17948399;229.99999153;-0.00000896;3054.10256160;5554.61538740;4928.84615531;4202.69230763;4697.56410354;4332.30769252;4273.97435905;4304.10256425
4306.02564117;3454.23076757;4963.97436051;4732.69230874;4929.61538608;2758.84615072;-0.00000896;-0.00000896;3022.17948461;5547.17948996;5091.28205309;4203.71794865;4959.87179640;4332.69230790;4271.15384623;4304.10256425
4307.43589758;3418.84615211;5218.97436106;4759.23077035;5158.07692503;2732.17948399;229.99999153;-0.00000896;2989.99999736;5483.97436162;5088.84615566;4204.35897429;4925.51282198;4307.17948732;4270.25641033;4304.10256425
4333.07692329;3382.17948538;5057.69230943;4759.87179599;4989.61538622;2664.10256077;-0.00000896;-0.00000896;2990.76922813;5455.76923334;5055.89743764;4204.48717942;5090.89743771;4306.66666681;4269.35897443;4336.92307714
4332.43589765;3316.53845960;4928.46153992;4731.92307797;4989.87179647;2593.84615038;229.99999153;-0.00000896;2992.05127941;5416.79487430;4765.38461650;4205.25641019;4765.51282163;4332.56410278;4270.89743597;4336.92307714
4304.10256425;3254.87179279;4830.89743715;4759.48718060;4631.41025725;2532.05127844;-0.00000896;-0.00000896;2991.66666403;5350.38461775;4793.58974477;4207.05128199;4993.20512981;4335.00000021;4267.94871802;4304.10256425
4302.56410271;3184.61538240;4891.79487319;4793.84615503;4930.89743736;2658.58974026;229.99999153;-0.00000896;2958.71794601;5288.46154069;5024.23077090;4233.84615385;4929.23077069;4335.12820534;4241.53846154;4304.10256425
4300.51282066;3122.43589508;5058.07692482;4860.51282184;4960.76923230;2764.99999688;-0.00000896;-0.00000896;2858.20512529;5221.28205337;5453.97436155;4207.30769224;5191.28205330;4335.25641047;4266.79487187;4304.23076937
4302.94871809;3090.76922834;4827.43589869;4892.82051421;4760.25641137;2857.56409965;-0.00000896;-0.00000896;2792.69230464;5127.82051470;4634.35897520;4234.87179488;4956.28205281;4336.53846175;4238.97435898;4304.23076937
4303.33333348;3087.56410014;5549.48718227;4893.33333473;5221.79487388;2923.33333056;-0.00000896;-0.00000896;2792.82050977;5055.89743764;5582.43590029;4207.56410250;5614.23077215;4336.79487201;4237.30769231;4304.23076937
4300.38461553;3089.10256167;5516.28205400;4859.35897568;5287.82051505;2991.79486916;229.99999153;-0.00000896;2764.48717636;4928.33333480;5453.71795129;4207.56410250;5648.07692607;4338.84615406;4236.53846154;4304.23076937
4268.97435905;3120.12820277;5907.69231124;4794.35897554;5421.53846404;3027.05127948;229.99999153;-0.00000896;2823.97435599;4827.05128331;6071.79487569;4208.20512814;5913.07692662;4338.97435919;4206.92307686;4271.28205136
4208.46153840;3150.76922848;5054.74359148;4729.87179592;5022.05128372;3021.41025384;229.99999153;-0.00000896;2764.23076611;4765.12820624;4926.02564249;4205.12820506;5023.97436065;4340.25641047;4209.10256404;4205.64102558
4175.38461525;3155.64102335;4924.48718095;4696.41025739;4864.10256543;2956.02563832;229.99999153;-0.00000896;2660.64102231;4762.30769342;4959.35897589;4206.15384609;4928.58974505;4367.30769259;4208.07692301;4172.69230756
4202.05128199;3155.12820284;4497.43589800;4693.46153944;4662.82051373;2927.05127928;-0.00000896;-0.00000896;2502.17948350;4729.35897541;4467.05128254;4209.10256404;4403.97435933;4365.25641054;4207.17948711;4205.51282045
4235.38461539;3125.38461303;4730.25641130;4664.61538552;4562.43589813;2895.76922792;-0.00000896;-0.00000896;2497.82050914;4665.76923168;4595.89743667;4208.84615378;4695.12820610;4366.53846182;4204.35897429;4238.33333334
4241.66666667;3090.76922834;4500.64102620;4661.15384706;4628.71794956;2863.46153555;-0.00000896;-0.00000896;2498.97435530;4631.28205212;4370.12820541;4235.12820513;4529.74359037;4367.30769259;4204.74358968;4238.33333334
4267.82051289;3060.12820263;5029.48718116;4634.10256494;4893.97436037;2894.61538177;-0.00000896;-0.00000896;2399.23076534;4629.23077007;5189.23077125;4235.38461539;4897.43589883;4367.94871823;4203.97435891;4271.15384623
4271.66666674;3026.53845897;5226.28205337;4601.15384692;5090.25641207;3022.30768974;-0.00000896;-0.00000896;2305.38461129;4533.97435960;5121.92307880;4208.33333327;5160.76923272;4368.97435926;4203.07692301;4271.15384623
4300.64102578;3022.43589487;4994.61538622;4532.69230832;4829.10256536;3093.20512578;-0.00000896;-0.00000896;2301.92307283;4438.58974401;4961.02564256;4234.35897436;4996.15384776;4369.10256438;4176.02564089;4303.84615399
4302.82051296;3019.61538205;5579.48718234;4435.00000042;5323.84615614;3059.61538212;-0.00000896;-0.00000896;2304.10256001;4400.25641061;5384.10256654;4234.87179488;5548.33333612;4370.25641054;4175.12820499;4303.71794886
4300.76923091;2991.66666403;5351.53846390;4339.35897457;5219.74359183;3058.33333084;-0.00000896;-0.00000896;2333.33332931;4339.23076944;5616.41025933;4208.97435891;5685.64102870;4370.12820541;4172.94871781;4303.71794886
4300.12820527;2992.17948454;4763.33333445;4300.89743604;4635.00000084;3183.84615163;-0.00000896;-0.00000896;2272.43589327;4267.05128212;4600.51282128;4234.61538462;4668.20512911;4371.41025669;4172.56410243;4303.58974373
4303.97435912;3022.30768974;4634.74359058;4235.00000000;4628.71794956;3189.74358752;-0.00000896;-0.00000896;2266.79486763;4174.23076910;4595.51282128;4234.87179488;4667.82051373;4369.61538490;4170.64102551;4303.58974373
4332.94871816;3027.43589487;4596.79487256;4171.41025628;4534.23076986;3187.43589522;-0.00000896;-0.00000896;2300.38461129;4076.92307658;4437.30769273;4237.30769231;4436.53846196;4370.51282079;4168.84615371;4336.28205149
4335.89743611;3058.84615135;4896.15384755;4139.61538441;4963.46153999;3218.20512605;-0.00000896;-0.00000896;2272.05127789;3910.89743521;4829.35897561;4208.46153840;5125.51282239;4370.89743618;4143.20512800;4336.28205149
4339.74358996;3092.69230526;4693.71794969;4106.53846126;4891.79487319;3189.61538240;-0.00000896;-0.00000896;2271.41025224;3808.58974269;4729.61538566;4236.28205129;4793.33333452;4370.00000028;4141.28205108;4336.28205149
4337.30769252;3153.84615156;4602.30769308;4073.07692273;4764.10256522;3189.61538240;-0.00000896;-0.00000896;2302.17948308;3680.38461421;4731.53846258;4233.97435898;4598.84615461;4369.48717977;4137.94871774;4336.28205149
4333.84615406;3188.20512599;4405.12820548;4040.38461497;4339.61538483;3254.48717741;-0.00000896;-0.00000896;2264.87179071;3583.58974220;4406.02564138;4235.64102564;4698.20512918;4369.48717977;4138.07692287;4336.15384637
4305.76923091;3253.46153638;4928.46153992;3974.10256355;4897.56410396;3185.76922855;-0.00000896;-0.00000896;2206.28204698;3518.46153694;4828.58974484;4237.56410257;5094.61538643;4370.25641054;4139.23076903;4303.33333348
4301.79487194;3288.84615183;4762.69230881;3878.71794796;4632.43589827;3121.79486944;-0.00000896;-0.00000896;2235.38461115;3513.07692155;4699.23077021;4240.00000000;4727.17948823;4370.00000028;4136.02564082;4303.20512835
4300.76923091;3321.66666472;4925.25641172;3814.35897346;4894.87179627;3123.97435662;-0.00000896;-0.00000896;2141.02563658;3419.10256237;4988.97436058;4238.97435898;4766.66666778;4367.94871823;4110.64102537;4303.20512835
4301.53846168;3355.76922890;4369.48717977;3746.28205024;4632.94871879;3152.30769002;-0.00000896;-0.00000896;2201.41025211;3353.97435710;4367.69230797;4239.35897436;4403.97435933;4369.74359003;4109.23076896;4303.07692322
4301.15384630;3414.87179314;4667.56410347;3679.23076805;4727.17948823;3124.48717713;-0.00000896;-0.00000896;2268.33332917;3284.35897235;4666.53846245;4239.23076923;4535.64102627;4367.69230797;4135.51282031;4303.07692322
4271.28205136;3447.56410090;4498.97435953;3584.74358836;4629.23077007;3089.48717706;-0.00000896;-0.00000896;2304.74358565;3222.17948503;4534.61538524;4239.48717949;4632.56410340;4367.82051310;4106.41025614;4270.12820520
4238.84615385;3480.25640866;4175.12820499;3518.58974206;4401.53846189;3053.46153596;-0.00000896;-0.00000896;2402.43589355;3217.94871580;4398.20512856;4241.53846154;4040.12820472;4365.38461567;4105.25640998;4237.17948718
4204.99999993;3512.05128053;4697.56410354;3479.61538302;4766.41025753;3059.48717699;-0.00000896;-0.00000896;2436.53845772;3186.79486958;4537.17948781;4241.92307693;4430.89743632;4340.25641047;4104.87179460;4204.35897429
4174.48717935;3519.35897283;3972.43589688;3416.15384442;3874.23076847;3085.76922834;-0.00000896;-0.00000896;2499.23076555;3088.58974116;4209.10256404;4268.46153853;3909.61538392;4338.71794893;4102.82051255;4171.53846140
4172.30769217;3577.69230631;3618.20512689;3381.66666486;3905.76923008;3023.58974102;229.99999153;-0.00000896;2531.53845793;3057.69230519;3976.15384560;4270.51282059;3581.92307554;4338.84615406;4102.94871767;4171.41025628
4172.05128192;3583.58974220;3418.20512647;3354.10256223;3481.02563943;2958.58974088;68.46152964;-0.00000896;2630.76922737;3025.76922820;3646.15384491;4269.48717956;3156.15384386;4335.25641047;4076.92307658;4171.41025628
4172.17948704;3615.76922945;3185.64102342;3353.71794685;3319.23076729;2987.94871531;4.99999104;-0.00000896;2698.46153520;2961.53845883;3091.02563860;4268.46153853;3120.38461303;4334.23076944;4074.23076889;4171.41025628
4174.35897422;3651.15384491;2794.10256105;3382.43589563;2696.79486853;2993.97435634;-0.00000896;-0.00000896;2757.05127893;2921.92307415;2565.25640672;4270.64102571;2600.76922730;4336.02564124;4075.64102530;4171.41025628
4175.51282038;3713.07692197;2658.46153513;3385.89743409;2727.94871476;2959.74358704;229.99999153;-0.00000896;2855.64102273;2858.84615093;2727.56409937;4271.02564110;2695.89743264;4332.69230790;4075.25640991;4171.41025628
4201.53846147;3778.71794775;2858.07692016;3382.82051102;2862.17948426;2960.38461268;229.99999153;-0.00000896;2893.33333049;2827.69230471;2632.30768891;4272.17948725;2893.20512536;4332.94871816;4074.35897402;4204.23076917
4201.92307686;3845.89743507;3217.94871580;3355.64102377;3316.28204934;2924.87179210;229.99999153;-0.00000896;2986.66666403;2827.94871496;3156.66666438;4300.12820527;3217.94871580;4303.46153860;4075.76923043;4204.23076917
4175.64102551;3908.07692239;3322.43589549;3349.99999813;3450.89743423;2862.30768939;229.99999153;-0.00000896;3058.84615135;2829.61538163;3350.12820326;4299.61538476;3287.17948517;4303.97435912;4073.20512786;4171.41025628
4172.17948704;3943.58974297;2895.76922792;3320.25640831;2954.48717678;2861.41025350;229.99999153;-0.00000896;3123.20512585;2796.02563797;2924.35897158;4300.12820527;2759.23076611;4302.43589758;4072.82051248;4171.41025628
4168.46153833;4005.64102516;3447.43589577;3287.43589542;3546.66666521;2923.07692030;229.99999153;-0.00000896;3191.41025419;2759.35897124;3611.41025509;4300.51282066;3218.97435682;4274.74358982;4072.43589709;4171.41025628
4109.99999973;4072.94871761;3417.05128032;3218.07692093;3354.74358787;2921.41025363;229.99999153;-0.00000896;3283.46153645;2760.89743277;3517.43589591;4299.48717963;3517.94871642;4274.61538469;4070.25640991;4105.64102537
4077.43589709;4143.33333313;3485.38461379;3153.84615156;3480.76922917;2826.92307394;229.99999153;-0.00000896;3251.41025433;2797.43589438;3643.33333209;4304.35897450;3551.79487034;4270.12820520;4072.30769196;4072.82051248
4104.10256383;4236.02564103;3483.84615225;3119.23076687;3544.61538316;2726.92307373;229.99999153;-0.00000896;3285.64102363;2893.58974074;3679.35897318;4304.48717963;3581.28204990;4269.74358982;4072.17948684;4105.51282024
4108.20512793;4268.58974366;3453.20512654;3087.56410014;3385.51281871;2658.58974026;229.99999153;-0.00000896;3319.61538267;2928.46153569;3188.33333111;4302.05128219;3678.84615267;4269.48717956;4070.25640991;4105.51282024
4142.30769210;4301.66666681;2760.25640713;3056.53845904;3088.58974116;2626.28204788;229.99999153;-0.00000896;3448.07692141;2991.02563839;2794.10256105;4305.00000014;2502.30768863;4241.66666667;4072.69230735;4138.33333313
4176.15384602;4305.38461553;3218.58974144;3054.74358725;3185.51281829;2565.76922723;229.99999153;-0.00000896;3579.61538323;3024.87179230;3124.61538226;4304.23076937;3190.38461316;4238.97435898;4072.56410222;4171.15384602
4234.61538462;4332.30769252;3154.61538233;3057.17948468;3317.17948524;2532.43589383;229.99999153;-0.00000896;3708.84615274;3088.58974116;3054.48717699;4307.43589758;3155.89743361;4236.66666667;4073.58974325;4236.79487180
4270.12820520;4335.51282073;3484.99999841;3118.97435662;3546.66666521;2560.89743236;229.99999153;-0.00000896;3749.61538358;3086.15384373;3483.97435738;4304.35897450;3289.99999799;4233.84615385;4072.30769196;4269.61538469
4333.20512842;4367.82051310;3518.33333181;3152.05127976;3778.97435801;2561.79486825;229.99999153;-0.00000896;3843.46153763;3059.74358725;3482.30769071;4305.64102578;3581.15384477;4206.66666660;4073.33333299;4335.38461560
4398.33333368;4399.74359009;3419.99999827;3186.79486958;3481.02563943;2531.28204767;229.99999153;-0.00000896;3978.97435842;3089.48717706;3578.97435759;4303.20512835;3646.41025516;4204.87179481;4072.17948684;4401.02564138
4434.23076965;4405.25641061;3224.10256195;3221.28204913;3315.64102370;2531.15384254;229.99999153;-0.00000896;4135.51282031;3119.74358738;3414.99999827;4307.17948732;3255.12820305;4203.84615378;4073.97435863;4433.84615427
4468.84615434;4465.12820562;3283.20512619;3255.51281843;3289.35897235;2563.71794518;229.99999153;-0.00000896;4169.74358961;3088.07692065;3318.20512626;4305.89743604;3257.30769023;4201.02564096;4074.35897402;4466.66666716
4501.02564159;4499.61538518;3480.51281892;3253.97435689;3551.15384470;2562.69230415;229.99999153;-0.00000896;4401.02564138;3056.28204878;3482.94871635;4305.00000014;3354.74358787;4175.12820499;4074.99999966;4499.48718005
4498.07692364;4563.46153916;3712.05128094;3254.87179279;3551.92307547;2627.17948378;229.99999153;-0.00000896;4602.30769308;3026.28204871;3709.48717838;4304.87179501;3681.02563985;4171.15384602;4076.28205094;4499.48718005
4470.25641075;4602.43589820;3453.58974193;3321.28204934;3612.69230638;2693.46153520;229.99999153;-0.00000896;4566.53846224;3056.02563853;3646.28205004;4305.12820527;3581.15384477;4172.17948704;4076.02564068;4466.79487229
4466.28205177;4726.66666771;3614.99999868;3348.97435710;3646.28205004;2627.82050942;229.99999153;-0.00000896;4600.25641102;3125.25640790;3613.46153715;4304.35897450;3615.89743458;4143.07692287;4077.43589709;4466.79487229
4468.58974408;4796.79487298;3644.99999875;3384.99999820;3647.82051157;2530.89743229;229.99999153;-0.00000896;4564.87179557;3256.15384407;3448.84615218;4303.97435912;3648.07692183;4142.43589723;4076.79487145;4466.79487229
4502.82051338;4862.82051414;4468.58974408;3388.58974179;4208.33333327;2468.84615010;229.99999153;-0.00000896;4563.20512890;3383.58974179;3912.82051213;4333.07692329;4497.94871851;4138.20512800;4105.12820485;4499.61538518
4564.23076993;4895.76923216;4171.28205115;3386.53845974;4240.76923077;2364.74358579;229.99999153;-0.00000896;4567.17948788;3481.15384456;4597.56410333;4305.38461553;4368.46153874;4139.10256390;4105.76923050;4565.25641096
4600.64102641;4893.46153986;3906.02564033;3386.28204948;4008.20512772;2233.07691884;229.99999153;-0.00000896;4696.92307790;3583.33333195;3879.61538385;4304.23076937;3781.28205031;4136.92307672;4107.56410229;4598.07692385
4661.53846245;4862.43589876;3873.07692232;3449.61538295;3906.02564033;2199.10255980;229.99999153;-0.00000896;4858.84615517;3683.20512703;4171.28205115;4304.48717963;4043.58974318;4110.12820485;4109.48717921;4663.84615475
4698.33333431;4831.79487305;3252.05127997;3547.69230624;3285.25640825;2235.64102141;229.99999153;-0.00000896;4859.87179620;3748.84615281;3152.69230540;4302.82051296;3315.25640831;4135.38461518;4110.51282024;4696.79487277
4760.38461650;4828.07692433;2496.41025273;3618.33333202;2695.76922751;2204.35897005;229.99999153;-0.00000896;4896.15384755;3847.69230686;2659.35897103;4301.15384630;2396.66666278;4109.10256383;4137.30769210;4762.43589855
4795.89743708;4794.74359093;2464.87179112;3708.84615274;2531.92307331;2140.64102120;229.99999153;-0.00000896;5124.74359162;3942.69230707;2299.99999590;4303.20512835;2599.87179140;4107.05128178;4138.07692287;4795.38461657
4798.84615503;4761.15384727;2501.79486812;3778.20512724;2790.64102259;2200.25640595;229.99999153;-0.00000896;5154.48718144;4006.28205080;2726.41025322;4301.66666681;2599.10256063;4106.15384588;4142.43589723;4795.38461657
4798.07692426;4731.28205233;2695.38461212;3874.23076847;2789.99999695;2171.79486742;229.99999153;-0.00000896;5160.25641221;4072.94871761;2729.61538142;4301.66666681;2796.41025336;4107.30769203;4140.76923056;4795.51282170
4796.28205247;4700.00000098;2666.02563769;3880.89743514;2830.51281753;2203.97435467;229.99999153;-0.00000896;5254.74359190;4103.20512793;2758.84615072;4302.43589758;2828.07692009;4106.02564075;4142.82051262;4795.51282170
4766.66666778;4693.71794969;2594.99999653;3941.28205066;2595.51281704;2203.20512390;-0.00000896;-0.00000896;5219.61538670;4141.41025621;2464.99999625;4299.61538476;2730.12820194;4104.48717921;4143.20512800;4762.82051394
4765.51282163;4665.89743680;3256.53845946;3978.33333278;3513.46153694;2141.41025197;4.48717053;-0.00000896;5220.38461747;4201.92307686;3417.94871622;4273.97435905;3125.89743354;4104.10256383;4170.25641012;4762.82051394
4792.30769349;4660.89743680;3092.43589501;4036.92307651;3118.84615149;2135.12820068;229.99999153;-0.00000896;5285.51282274;4203.33333327;3087.69230526;4272.56410264;3223.20512605;4105.12820485;4172.05128192;4795.64102683
4793.97436016;4660.64102655;3414.48717775;4071.79487145;3483.71794712;2168.84614947;4.48717053;-0.00000896;5287.30769454;4238.07692308;3418.84615211;4301.15384630;3383.84615204;4103.84615357;4172.69230756;4795.76923195
4797.56410375;4663.97435988;3220.12820298;4137.43589723;3481.66666507;2171.41025204;-0.00000896;-0.00000896;5287.30769454;4273.07692315;3481.92307533;4274.10256418;3185.51281829;4103.33333306;4174.35897422;4795.76923195
4828.20512946;4667.05128296;4107.82051255;4202.05128199;3940.89743528;2202.17948288;-0.00000896;-0.00000896;5317.17948948;4332.82051303;4077.05128171;4273.20512828;4369.74359003;4104.61538434;4176.02564089;4828.71794997
4828.71794997;4696.41025739;4332.69230790;4269.10256418;4335.25641047;2239.87179064;-0.00000896;-0.00000896;5319.35897666;4333.20512842;4366.15384644;4301.28205142;4339.87179508;4104.35897408;4202.30769224;4828.71794997
4830.38461664;4728.33333438;4666.79487270;4338.46153867;4862.43589876;2266.79486763;-0.00000896;-0.00000896;5285.38461761;4431.41025683;4633.84615468;4272.94871802;4305.00000014;4105.12820485;4203.46153840;4828.84615510
4830.38461664;4759.87179599;4633.46153930;4405.64102599;4762.43589855;2238.71794448;-0.00000896;-0.00000896;5253.97436113;4501.28205184;4633.46153930;4274.10256418;4734.23077028;4106.66666639;4205.38461532;4828.84615510
4858.97436030;4766.41025753;5257.82051498;4498.20512876;5157.94871990;2237.17948294;-0.00000896;-0.00000896;5221.15384824;4566.66666737;5255.76923293;4273.97435905;5353.33333570;4106.53846126;4206.92307686;4861.79487312
4858.84615517;4793.20512939;5518.71795143;4568.07692378;5388.71795115;2270.51281635;-0.00000896;-0.00000896;5226.53846363;4565.64102634;5421.92307943;4272.69230777;5619.61538754;4108.07692280;4207.82051275;4861.79487312
4830.38461664;4795.76923195;5648.20513120;4600.76923154;5586.53846439;2305.51281642;-0.00000896;-0.00000896;5193.58974561;4598.58974436;5778.58974686;4271.28205136;5717.69231082;4109.35897408;4208.07692301;4829.10256536
4798.07692426;4829.23077049;5619.48718241;4667.30769321;5684.74359280;2302.17948308;-0.00000896;-0.00000896;5126.02564291;4667.05128296;5812.94872129;4271.66666674;5716.28205441;4109.35897408;4235.51282052;4796.28205247
4793.07692426;4857.43589876;5518.07692579;4730.89743694;5384.35897679;2297.69230360;-0.00000896;-0.00000896;5059.10256584;4762.17948830;5454.48718206;4300.00000014;5518.84615656;4110.51282024;4235.64102564;4796.41025760
4764.74359086;4857.43589876;5291.15384838;4791.79487298;5219.48718158;2298.33332924;-0.00000896;-0.00000896;4992.43589904;4890.38461678;5257.69230985;4269.74358982;5257.43589959;4138.97435877;4238.20512821;4763.58974471
4763.07692419;4832.17948843;5193.33333535;4858.84615517;5189.61538663;2269.99999583;-0.00000896;-0.00000896;4959.10256564;4930.64102710;5094.61538643;4271.92307700;5384.48718192;4138.58974339;4237.94871795;4763.71794983
4733.58974464;4799.23077042;5488.33333598;4925.38461685;5223.33333542;2201.66666236;-0.00000896;-0.00000896;4994.61538622;5027.56410424;5454.23077181;4269.74358982;5551.66666945;4140.76923056;4240.00000000;4730.89743694
4696.28205226;4761.15384727;5225.00000209;5024.61538629;5350.76923314;2200.51281621;-0.00000896;-0.00000896;4928.46153992;5158.46154041;5154.35897631;4269.35897443;4929.35897582;4168.84615371;4241.92307693;4698.20512918
4662.94871886;4730.00000105;5188.58974561;5155.89743785;5123.07692496;2299.23076513;-0.00000896;-0.00000896;4763.58974471;5258.46154062;5157.69230964;4272.05128212;5255.12820729;4169.10256397;4266.92307700;4665.51282142
4661.41025732;4699.61538559;5321.28205358;5256.92307908;5218.58974568;2300.25640616;-0.00000896;-0.00000896;4694.10256508;5290.64102787;5255.64102780;4269.35897443;5285.38461761;4171.41025628;4268.33333341;4665.64102655
4635.25641109;4663.33333424;4956.66666820;5357.69231006;5023.97436065;2267.56409840;-0.00000896;-0.00000896;4666.92307783;5254.87179703;4829.87179613;4269.61538469;5054.48718123;4201.53846147;4268.84615392;4632.82051366
4630.89743674;4599.61538538;5385.38461782;5481.41025905;5290.64102787;2239.87179064;-0.00000896;-0.00000896;4568.58974429;5257.69230985;5320.12820743;4241.15384616;5648.20513120;4175.51282038;4270.00000007;4632.94871879
4627.94871879;4567.17948788;5875.25641373;5551.15384894;6012.17949094;2336.53845751;-0.00000896;-0.00000896;4301.53846168;5291.92307915;5846.66667008;4269.35897443;5976.79487548;4203.58974352;4270.64102571;4633.07692391
4600.76923154;4536.28205191;5386.66666910;5682.82051588;5423.46154097;2400.64102175;-0.00000896;-0.00000896;4043.58974318;5387.82051526;5452.05128463;4268.07692315;5354.74359211;4205.25641019;4270.89743597;4600.38461615
4602.69230846;4503.58974415;5482.43590008;5743.71795192;5455.76923334;2403.07691919;-0.00000896;-0.00000896;3877.43589668;5417.94872045;5353.46154083;4270.12820520;5255.25641241;4236.53846154;4270.76923084;4600.38461615
4634.61538545;4467.82051331;5875.12820861;5713.58974672;5875.89743938;2403.20512432;-0.00000896;-0.00000896;3810.89743500;5416.66666917;5875.89743938;4240.00000000;5942.43590105;4235.64102564;4271.66666674;4633.20512904
4665.64102655;4405.12820548;6208.71795289;5713.07692621;6172.05128615;2532.56409895;-0.00000896;-0.00000896;3779.61538365;5320.76923307;5910.64102919;4266.66666674;5981.28205497;4235.76923077;4270.51282059;4666.02564193
4667.56410347;4367.82051310;5880.12820861;5682.17949024;6071.79487569;2698.97435571;-0.00000896;-0.00000896;3774.35897339;5319.35897666;5980.25641394;4266.66666674;6044.74359357;4267.05128212;4271.79487187;4666.02564193
4668.07692398;4337.69230790;5945.51282413;5615.89743882;6043.07692690;2796.92307387;229.99999153;-0.00000896;3644.48717824;5383.33333577;5947.56410618;4237.43589744;5881.53846502;4270.00000007;4270.25641033;4665.89743680
4700.51282149;4339.10256431;5847.43590084;5554.61538740;6108.33333730;2861.79486888;229.99999153;-0.00000896;3287.69230568;5454.74359232;6041.79487562;4239.23076923;5876.02564450;4270.25641033;4271.66666674;4698.71794969
4764.74359086;4338.20512842;6142.05128609;5551.02564381;6046.79487562;2660.76922744;229.99999153;-0.00000896;3023.07692051;5486.41025905;5877.82051630;4236.92307693;5879.61538809;4274.35897443;4269.35897443;4764.35897547
4825.51282177;4268.20512828;5781.41025968;5518.84615656;5779.35897763;2563.20512467;229.99999153;-0.00000896;3249.99999792;5415.89743840;5553.33333612;4237.05128206;5716.02564416;4301.79487194;4271.66666674;4830.00000125
4793.84615503;4169.74358961;6042.17949101;5481.92307957;6075.00000390;2758.71794559;-0.00000896;-0.00000896;3349.48717761;5288.46154069;6137.82051685;4235.89743590;6014.10256786;4304.23076937;4270.64102571;4797.05128324
4734.23077028;4108.07692280;6044.48718331;5422.43589994;6046.92308075;2957.43589473;-0.00000896;-0.00000896;3221.92307477;5252.69230985;6010.38461914;4208.97435891;6012.43590119;4304.10256425;4269.87179495;4731.41025746
4668.20512911;4104.48717921;6305.38461977;5383.46154090;6303.07692746;3088.58974116;229.99999153;-0.00000896;2955.76922806;5252.82051498;6273.20513252;4207.05128199;6337.30769676;4332.30769252;4269.48717956;4665.76923168
4662.69230860;4136.66666646;5813.97436231;5382.56410500;5586.28205413;3020.38461282;-0.00000896;-0.00000896;2632.05127865;5253.46154062;5813.07692642;4207.56410250;5848.33333674;4332.43589765;4269.23076930;4665.76923168
4665.76923168;4138.20512800;4930.38461685;5384.61538705;4995.64102724;2894.99999715;229.99999153;-0.00000896;2563.07691954;5224.61538670;4825.51282177;4204.74358968;4732.43589848;4334.35897457;4268.20512828;4665.76923168
4665.38461629;4077.30769196;5947.17949080;5383.58974603;6041.66667049;3021.41025384;-0.00000896;-0.00000896;2633.58974019;5153.71795067;6006.66667042;4202.69230763;5875.00000348;4335.76923098;4267.82051289;4665.76923168
4633.46153930;4044.35897395;5981.28205497;5317.82051512;6045.00000383;3217.69230554;229.99999153;-0.00000896;2600.89743243;5059.74359148;5942.05128567;4176.28205115;5877.94872143;4337.05128226;4266.79487187;4632.82051366
4598.84615461;4043.58974318;6467.69231242;5219.48718158;6436.92308158;3351.41025454;-0.00000896;-0.00000896;2499.74358606;4995.38461699;6433.84615851;4175.25641012;6434.61538927;4339.61538483;4266.92307700;4599.87179564
4565.25641096;4073.20512786;5781.15384942;5094.61538643;5816.41025975;3355.38461351;229.99999153;-0.00000896;2363.71794476;5026.79487347;5747.05128525;4174.35897422;5782.17949045;4339.87179508;4241.53846154;4566.92307762
4535.76923140;4103.97435870;6203.71795289;5054.48718123;5618.97436190;3286.92307491;-0.00000896;-0.00000896;2237.05127782;5023.58974526;6177.43590154;4172.30769217;6041.53846536;4365.25641054;4240.38461539;4534.10256473
4531.15384678;4076.15384581;3646.02563978;4994.48718109;4076.79487145;3285.25640825;229.99999153;-0.00000896;2239.87179064;4993.20512981;4234.35897436;4172.69230756;3909.35897367;4366.28205156;4240.25641026;4534.10256473
4499.10256466;4070.89743555;5455.38461796;4930.64102710;5190.89743792;3352.94871608;-0.00000896;-0.00000896;2201.41025211;4962.17948871;5612.69231061;4172.43589730;5581.53846439;4367.05128233;4239.35897436;4501.15384671
4469.10256459;4069.87179453;5390.51282295;4892.05128344;5549.10256689;3290.12820312;229.99999153;-0.00000896;2101.53845703;4926.53846300;5653.07692607;4168.58974345;5548.33333612;4367.69230797;4239.61538462;4468.33333382
4403.84615420;4069.99999966;5845.25641367;4857.94871927;5352.56410493;3352.43589556;-0.00000896;-0.00000896;2040.12820048;4893.97436037;5813.84615719;4172.69230756;5878.84615732;4369.10256438;4238.46153847;4402.69230804
4334.23076944;4074.74358940;5947.69231131;4765.00000112;5815.64102898;3519.87179335;229.99999153;-0.00000896;1969.99999521;4861.28205261;5977.94872164;4168.20512807;5979.87179856;4368.71794900;4238.97435898;4336.92307714
4240.51282052;4109.61538434;5875.00000348;4661.15384706;5581.66666952;3549.87179342;-0.00000896;-0.00000896;1904.61537969;4860.25641158;5646.41025940;4169.87179474;5617.82051574;4371.15384644;4238.46153847;4238.33333334
4175.12820499;4142.56410236;5060.00000174;4529.61538524;4988.97436058;3450.89743423;229.99999153;-0.00000896;1941.28204642;4891.66666806;5060.64102738;4141.02564082;5320.64102794;4370.12820541;4239.87179488;4172.56410243
4108.71794844;4142.69230749;6171.41026051;4431.92307734;5946.41026003;3382.69230589;-0.00000896;-0.00000896;2041.66666201;4926.28205275;6403.58974818;4168.58974345;6338.33333778;4367.17948746;4238.97435898;4106.79487152
4042.94871754;4138.20512800;5219.61538670;4400.12820548;5224.23077132;3417.94871622;229.99999153;-0.00000896;2073.33332875;4930.25641172;5187.17948920;4170.38461525;5318.97436127;4367.82051310;4238.84615385;4041.15384574
3978.84615329;4110.51282024;4533.84615448;4366.41025669;5125.38461726;3514.35897283;-0.00000896;-0.00000896;2104.87179036;4926.28205275;4959.35897589;4142.05128185;4729.61538566;4370.64102592;4239.10256411;3975.51281996
3941.79487117;4109.74358947;5357.05128442;4332.43589765;5123.46154034;3545.64102419;229.99999153;-0.00000896;2103.46153395;4988.97436058;5548.71795150;4169.23076910;5156.15384810;4370.76923105;4239.35897436;3942.69230707
3908.07692239;4136.79487159;4271.92307700;4274.74358982;4037.69230728;3577.43589605;-0.00000896;-0.00000896;1969.23076444;5057.43589918;3780.38461442;4139.10256390;4038.46153805;4368.20512849;4239.74358975;3909.74358905
3879.99999924;4138.71794851;4006.41025593;4240.00000000;4038.33333292;3518.58974206;229.99999153;-0.00000896;1903.84614892;5091.28205309;4135.64102544;4142.30769210;4332.56410278;4366.28205156;4240.00000000;3876.92307616
3877.69230693;4137.05128185;4570.12820583;4175.25641012;4532.82051345;3514.61538309;-0.00000896;-0.00000896;2004.74358502;5092.05128386;4464.35897485;4169.87179474;4042.05128164;4367.69230797;4238.33333334;3876.79487103
3846.79487096;4110.64102537;4043.97435856;4136.28205108;4135.76923056;3547.05128060;229.99999153;-0.00000896;2008.07691836;5158.71795067;4007.56410208;4142.30769210;4595.25641102;4368.97435926;4241.28205129;3843.97435814
3840.12820430;4110.64102537;3683.20512703;4038.33333292;4240.38461539;3579.61538323;-0.00000896;-0.00000896;1911.41025148;5220.51282260;4012.05128157;4169.87179474;3449.74358808;4367.30769259;4240.51282052;3843.84615302
3841.66666584;4139.35897415;3256.66666459;3942.69230707;3613.97435766;3517.43589591;229.99999153;-0.00000896;1941.41025155;5251.79487395;3419.99999827;4168.71794858;3383.33333153;4339.87179508;4266.79487187;3843.84615302
3846.66666584;4136.66666646;2366.66666271;3876.79487103;2859.35897144;3413.33333160;-0.00000896;-0.00000896;2104.99999549;5257.30769447;2370.76922681;4143.33333313;1976.66666188;4365.64102592;4268.58974366;3843.71794789
3873.84615309;4103.71794844;2891.15384331;3814.10256320;3188.84615163;3385.89743409;229.99999153;-0.00000896;2204.23076493;5318.84615614;2692.43589417;4142.05128185;3022.43589487;4365.76923105;4267.56410264;3876.53846078
3872.82051206;4072.17948684;3350.76922890;3777.05128108;4239.87179488;3448.84615218;0.51281155;-0.00000896;2269.61538045;5284.23077146;3578.07692169;4171.41025628;3023.97435641;4340.00000021;4268.07692315;3876.41025565
3847.56410173;4044.10256369;2921.02563825;3715.64102453;3286.66666466;3481.53845994;-0.00000896;-0.00000896;2429.23076541;5257.82051498;2959.48717678;4172.05128192;2892.17948433;4338.33333355;4268.71794879;3843.58974276
3845.64102481;4072.05128171;2760.64102252;3709.48717838;3122.94871559;3451.66666500;-0.00000896;-0.00000896;2531.92307331;5226.53846363;2793.33333028;4172.05128192;2790.25640720;4336.92307714;4268.84615392;3843.58974276
3839.99999917;4075.38461504;2009.48717477;3681.02563985;2431.41025259;3353.84615197;229.99999153;-0.00000896;2593.71794525;5255.64102780;2103.97435446;4170.38461525;1845.64102057;4335.89743611;4269.23076930;3843.58974276
3809.87179397;4075.51282017;2238.97435474;3676.02563985;2367.94871399;3351.79486992;229.99999153;-0.00000896;2661.66666334;5254.35897652;2267.43589327;4172.94871781;2300.51281642;4336.66666688;4269.74358982;3810.76922987
3776.02564006;4106.02564075;2269.87179071;3648.20512696;2632.82050942;3351.15384428;229.99999153;-0.00000896;2698.84615058;5225.51282260;2305.12820103;4172.30769217;2239.61538038;4335.76923098;4271.79487187;3777.82051185
3745.64102460;4139.48717928;2497.82050914;3646.53846029;3256.15384407;3254.74358766;229.99999153;-0.00000896;2757.30768918;5284.48718171;2791.28204823;4175.25641012;2566.15384261;4333.46153867;4270.51282059;3744.99999896
3745.64102460;4171.28205115;2494.48717581;3678.71794754;2823.84615086;3254.23076715;-0.00000896;-0.00000896;2791.53845848;5255.38461754;2530.12820152;4203.84615378;2205.76922646;4333.20512842;4270.25641033;3745.12820409
3744.99999896;4201.41025634;2302.43589334;3678.84615267;3026.53845897;3221.79486964;-0.00000896;-0.00000896;2761.02563790;5319.87179717;2758.20512508;4173.71794858;2429.10256028;4333.71794893;4271.41025648;3745.12820409
3745.76922973;4208.97435891;2889.74358690;3618.20512689;3121.02563867;3154.61538233;-0.00000896;-0.00000896;2697.30768905;5387.05128449;2827.05127907;4202.69230763;3219.87179272;4307.17948732;4271.92307700;3744.99999896
3940.64102502;4204.74358968;2694.23076597;3646.66666542;3057.43589494;2855.89743298;-0.00000896;-0.00000896;2921.02563825;5552.56410535;2663.46153513;4204.48717942;2533.58973998;4303.46153860;4272.56410264;3941.92307630
3973.97435842;4172.69230756;2133.46153402;3644.10256286;2434.10256028;2796.02563797;-0.00000896;-0.00000896;2988.84615121;5582.43590029;2166.79486742;4207.56410250;2396.41025252;4300.51282066;4273.58974366;3974.74358919
4007.30769183;4139.35897415;1838.33332826;3676.02563985;2002.56409784;2731.79486860;-0.00000896;-0.00000896;3058.20512571;5580.38461824;1974.10255931;4206.53846147;1840.25640519;4301.79487194;4273.46153853;4007.69230721
4038.84615343;4107.94871767;1942.43589258;3716.28205017;2040.89743125;2698.97435571;-0.00000896;-0.00000896;3153.71794643;5582.17949003;1944.10255924;4207.43589737;1904.10255917;4301.92307707;4273.71794879;4040.51282010
4071.41025607;4073.58974325;1845.64102057;3808.97435807;1939.48717463;2633.71794532;-0.00000896;-0.00000896;3384.99999820;5548.71795150;1842.43589237;4239.74358975;1742.30768703;4299.87179501;4273.71794879;4073.46153812
4069.87179453;4038.20512779;1742.69230242;3845.25640943;1746.92307165;2730.76922758;-0.00000896;-0.00000896;3256.92307484;5549.35897714;1810.38461025;4233.97435898;1807.43589230;4274.10256418;4273.71794879;4073.46153812
4072.56410222;4037.05128164;1549.87178918;3940.76923015;1513.33332757;2729.23076604;-0.00000896;-0.00000896;3189.10256188;5581.79487465;1413.97435300;4206.79487173;1451.66666076;4299.74358989;4274.10256418;4073.58974325
4107.69230742;4007.17948670;1546.15384046;4011.92307644;1546.79486610;2691.28204802;-0.00000896;-0.00000896;3321.53845960;5580.25641311;1382.05127601;4234.61538462;1546.02563533;4271.66666674;4274.10256418;4106.41025614
4169.35897422;3972.56410201;1615.51281496;4106.02564075;1777.05127684;2599.48717602;-0.00000896;-0.00000896;3318.20512626;5549.35897714;1511.15384039;4236.02564103;1543.20512251;4272.94871802;4274.61538469;4172.17948704
4206.79487173;3912.30769162;3678.46153728;4206.28205122;3940.12820451;2594.61538114;-0.00000896;-0.00000896;3383.84615204;5518.71795143;3847.43589661;4236.02564103;3812.43589654;4268.97435905;4299.74358989;4205.12820506
4240.00000000;3878.97435821;3155.12820284;4273.07692315;3319.23076729;2661.41025308;-0.00000896;-0.00000896;3448.20512654;5486.41025905;3419.74358801;4237.30769231;3223.71794657;4272.30769238;4272.69230777;4237.94871795
4274.35897443;3844.74358891;4074.35897402;4399.23076958;3971.28205073;2694.87179161;-0.00000896;-0.00000896;3450.25640859;5484.48718213;3940.64102502;4235.12820513;4042.05128164;4273.33333341;4272.43589751;4270.89743597
4339.10256431;3813.97435807;4306.15384630;4530.38461601;4365.25641054;2660.76922744;-0.00000896;-0.00000896;3386.02563922;5390.00000244;3877.94871719;4238.84615385;4235.89743590;4273.71794879;4272.05128212;4336.66666688
4372.94871823;3779.23076826;4204.87179481;4627.82051366;4437.43589786;2726.41025322;-0.00000896;-0.00000896;3479.87179328;5389.87179731;4501.28205184;4236.66666667;4436.28205170;4300.25641040;4269.61538469;4369.61538490
4402.82051317;3748.07692204;4562.94871865;4664.74359065;4995.64102724;2825.64102266;-0.00000896;-0.00000896;3388.20512640;5351.53846390;5193.71795074;4235.76923077;4762.56410368;4300.38461553;4270.64102571;4402.43589779
4431.53846196;3747.56410153;5744.87179807;4697.30769328;5384.87179731;2797.17948413;-0.00000896;-0.00000896;3387.82051102;5322.05128435;5620.38461831;4237.30769231;5743.84615705;4301.15384630;4270.51282059;4435.25641068
4435.51282093;3775.12820416;5356.28205365;4763.97436009;5291.79487402;2822.94871496;-0.00000896;-0.00000896;3349.23076736;5288.46154069;5712.43590057;4237.56410257;5451.66666924;4303.46153860;4268.97435905;4435.38461581
4467.30769280;3776.28205031;7617.30769947;4830.38461664;7516.15385311;2828.07692009;-0.00000896;-0.00000896;3286.02563901;5222.43589952;7451.92308374;4235.76923077;7425.51282726;4304.23076937;4268.58974366;4468.20512870
4497.69230825;3777.30769134;7059.35898034;4896.15384755;7061.41026239;2825.76922779;229.99999153;-0.00000896;3282.43589542;5156.28205323;7320.38462192;4236.66666667;7127.05128817;4303.46153860;4267.82051289;4501.15384671
4501.79487235;3748.33333229;6467.56410729;4959.48718102;6142.05128609;2763.20512508;229.99999153;-0.00000896;3188.20512599;5156.66666862;6271.53846585;4237.94871795;6304.35897874;4305.51282066;4241.92307693;4501.15384671
4531.02564165;3741.79487076;6439.35897902;5025.12820680;6210.00000417;2759.87179175;229.99999153;-0.00000896;3057.05127955;5219.87179696;6564.87179981;4236.02564103;6505.12820993;4306.53846168;4241.66666667;4534.10256473
4536.66666730;3711.02563992;4794.35897554;5058.46154020;4795.12820631;2791.92307387;229.99999153;-0.00000896;2859.48717657;5257.69230985;4766.79487291;4236.66666667;4894.10256550;4333.58974380;4240.64102564;4534.10256473
4627.94871879;3675.89743472;5028.07692475;5087.94871976;5060.64102738;2823.58974061;-0.00000896;-0.00000896;2664.48717616;5254.23077139;4730.51282156;4237.43589744;5219.23077132;4333.84615406;4239.10256411;4632.56410340
4728.20512925;3615.12820381;5224.87179696;5091.02564284;5254.74359190;2797.82050977;-0.00000896;-0.00000896;2530.64102203;5220.25641234;5548.07692586;4235.76923077;5121.53846342;4336.79487201;4238.33333334;4731.02564207
4828.84615510;3548.97435752;5483.07692572;5088.58974540;5485.00000264;2763.20512508;229.99999153;-0.00000896;2500.89743222;5153.97436092;5351.41025878;4236.66666667;5482.43590008;4337.05128226;4236.79487180;4829.48718074
4895.51282191;3453.71794705;6144.48718352;5027.69230936;6073.20513210;2829.61538163;-0.00000896;-0.00000896;2467.94871420;5061.41025815;6138.07692711;4235.51282052;6177.30769641;4339.87179508;4235.12820513;4895.12820652
4930.12820659;3417.30769057;6470.00000473;4960.64102717;6270.89744021;2956.92307422;229.99999153;-0.00000896;2270.89743173;4958.84615538;6435.12820979;4208.07692301;6406.15385074;4365.76923105;4233.84615385;4927.82051428
4957.43589897;3416.92307519;6961.41026218;4858.58974491;7091.53846759;3085.12820270;-0.00000896;-0.00000896;2168.84614947;4795.25641144;7288.58975006;4234.10256411;7063.58974957;4366.92307720;4206.92307686;4960.64102717
4929.74359121;3419.35897263;7061.66667265;4694.61538559;6728.71795400;3119.61538226;229.99999153;-0.00000896;2105.51281600;4697.17948816;6832.56410806;4235.00000000;6958.33333910;4368.46153874;4203.46153840;4927.56410403
4924.87179633;3446.53845987;7029.48718540;4504.35897492;7090.51282656;3086.92307449;-0.00000896;-0.00000896;2041.92307227;4633.84615468;7030.64103155;4208.97435891;7031.02564694;4368.71794900;4203.84615378;4927.43589890
4895.89743729;3421.28204955;6997.56410840;4370.25641054;6932.17949288;3024.74358718;229.99999153;-0.00000896;2105.51281600;4568.97435967;6959.48718526;4234.23076923;6963.84615962;4370.51282079;4201.41025634;4894.48718088
4864.61538594;3414.87179314;6963.46154423;4273.07692315;7025.38462129;3019.61538205;-0.00000896;-0.00000896;2235.64102141;4469.74359023;6996.53846738;4209.10256404;6764.48718484;4369.23076951;4175.38461525;4861.53846286
4825.12820638;3384.23076743;6998.71795456;4234.23076923;6631.02564610;3091.41025398;229.99999153;-0.00000896;2297.69230360;4365.76923105;6899.23077486;4207.82051275;7058.97436495;4370.89743618;4172.69230756;4828.71794997
4791.92307811;3384.35897256;6991.66667251;4201.28205122;6767.56410792;3151.28204899;-0.00000896;-0.00000896;2363.97435502;4241.53846154;6799.61539004;4238.46153847;6964.87180064;4371.41025669;4172.94871781;4795.89743708
4728.58974464;3382.43589563;6992.56410840;4142.69230749;6695.89744111;3125.64102328;229.99999153;-0.00000896;2434.48717567;4172.17948704;6962.56410834;4234.61538462;6996.92308276;4370.00000028;4170.25641012;4730.12820617
4663.71794963;3383.20512640;6958.07692885;4139.99999980;6604.23077424;3086.41025398;-0.00000896;-0.00000896;2403.84614996;4105.38461511;6962.82051859;4236.28205129;6963.33333910;4371.15384644;4169.10256397;4664.48718039
4629.23077007;3353.20512633;6965.25641603;4139.23076903;6797.69231312;3023.97435641;229.99999153;-0.00000896;2304.74358565;4044.48717907;7191.28205754;4235.76923077;7026.79487771;4370.51282079;4142.56410236;4631.66666750
4602.30769308;3319.35897242;7288.46154493;4110.64102537;6406.15385074;3024.61538205;-0.00000896;-0.00000896;2135.25640581;3974.99999945;7062.82051880;4235.64102564;7159.61539080;4371.53846182;4140.25641005;4598.84615461
4632.69230853;3287.82051081;7942.82052068;4072.30769196;7095.89744195;3021.79486923;229.99999153;-0.00000896;2105.76922626;3873.33333257;7943.58975145;4235.76923077;7943.46154632;4370.51282079;4138.84615364;4631.66666750
4632.05128289;3257.30769023;7746.02564846;3979.10256355;6769.10256946;3086.79486937;-0.00000896;-0.00000896;2102.17948267;3677.56410139;7752.82052026;4235.12820513;7749.48718693;4373.20512849;4135.38461518;4631.53846238
4632.56410340;3256.79486971;7223.33333966;3874.61538385;6535.51282538;3189.10256188;229.99999153;-0.00000896;1973.71794393;3486.02563943;7356.15385276;4236.53846154;7321.66667320;4370.12820541;4135.38461518;4631.41025725
4632.69230853;3317.05128011;7156.02564721;3713.33333223;6241.53846578;3284.10256209;-0.00000896;-0.00000896;1940.51281565;3254.10256202;7190.89744216;4235.89743590;7193.46154472;4368.97435926;4108.33333306;4631.28205212
4632.82051366;3383.84615204;5323.84615614;3579.87179349;5024.23077090;3351.15384428;229.99999153;-0.00000896;2069.74358516;3085.12820270;5681.92307998;4241.41025641;5551.92307971;4368.84615413;4107.30769203;4631.15384699
4628.20512904;3481.02563943;6075.51282441;3452.94871628;5848.20513161;3348.84615197;-0.00000896;-0.00000896;2268.33332917;2959.48717678;5744.48718269;4239.48717949;5913.46154201;4368.07692336;4105.38461511;4631.02564186
4597.43589820;3546.92307547;5091.66666848;3384.35897256;5127.30769419;3382.69230589;229.99999153;-0.00000896;2495.51281683;2862.17948426;5089.74359155;4241.28205129;5088.71795053;4369.48717977;4106.92307665;4598.07692385
4536.53846217;3645.38461414;5420.76923327;3348.33333146;5126.53846342;3384.74358794;-0.00000896;-0.00000896;2565.76922723;2855.64102273;5255.38461754;4269.74358982;5454.48718206;4340.00000021;4077.82051248;4532.43589807
4500.12820569;3746.53846050;4930.12820659;3255.25640818;4924.74359121;3318.84615190;229.99999153;-0.00000896;2662.56409923;2828.84615086;5062.05128379;4268.46153853;4831.41025766;4338.71794893;4077.30769196;4499.48718005
4471.15384664;3844.87179404;4008.71794824;3219.99999785;4206.02564096;3186.28204906;-0.00000896;-0.00000896;2759.10256098;2857.43589452;4239.48717949;4271.53846161;4234.23076923;4338.46153867;4075.89743555;4466.66666716
4469.74359023;3911.02564033;3482.94871635;3190.89743368;3483.33333174;3092.17948475;229.99999153;-0.00000896;2856.02563811;2889.61538177;3814.35897346;4266.92307700;3716.02563992;4337.43589765;4076.15384581;4466.66666716
4498.33333389;3972.94871740;2762.94871483;3158.84615156;2857.17948426;3085.64102321;-0.00000896;-0.00000896;2859.99999709;2889.35897151;2598.71794525;4273.58974366;2692.05127879;4333.33333355;4074.87179453;4499.48718005
4529.74359037;4011.28205080;2499.87179119;3153.97435669;2465.12820138;3059.48717699;229.99999153;-0.00000896;2958.84615114;2888.46153562;2726.02563783;4272.69230777;2500.64102196;4306.15384630;4072.30769196;4532.30769294
4537.05128268;4074.10256376;2396.79486791;3125.64102328;2533.97435536;3019.87179230;35.64101675;-0.00000896;3024.61538205;2891.41025357;2336.28204726;4274.48717956;2337.56409854;4305.76923091;4073.84615350;4532.17948781
4595.00000077;4140.38461518;2499.23076555;3151.02563874;2527.82050921;2959.23076652;7.30768335;-0.00000896;3118.07692072;2861.02563811;2528.07691947;4274.23076930;2497.30768863;4302.05128219;4071.79487145;4597.94871872
4629.10256494;4234.48717949;2593.46153499;3154.61538233;2528.20512460;2894.99999715;-0.00000896;-0.00000896;3249.48717741;2862.30768939;2567.17948364;4300.12820527;2562.69230415;4300.89743604;4072.56410222;4630.76923161
4662.05128296;4274.74358982;2661.02563769;3151.66666438;2502.43589376;2892.94871510;229.99999153;-0.00000896;3316.41025447;2895.51281767;2666.53845821;4303.58974373;2563.46153492;4299.48717963;4072.56410222;4663.58974450
4695.25641123;4337.17948739;2403.58973970;3092.94871552;2497.17948350;2828.71794573;229.99999153;-0.00000896;3383.97435717;2925.38461261;2396.66666278;4302.05128219;2433.71794490;4271.92307700;4073.20512786;4696.28205226
4700.76923175;4368.97435926;2533.20512460;3090.38461296;2827.43589445;2761.66666354;229.99999153;-0.00000896;3579.23076784;2956.92307422;2660.76922744;4303.33333348;2600.51281704;4268.20512828;4071.92307658;4696.28205226
4728.71794976;4403.97435933;2694.99999674;3122.94871559;2794.35897131;2791.28204823;229.99999153;-0.00000896;3713.84615274;2959.10256140;2859.87179196;4304.48717963;2724.99999681;4267.69230777;4073.20512786;4729.10256515
4759.87179599;4466.66666716;2661.28204795;3154.87179258;2792.17948413;2763.33333021;-0.00000896;-0.00000896;3747.56410153;2987.69230506;2795.51281746;4306.66666681;2696.02563776;4239.61538462;4072.94871761;4762.05128317
4793.58974477;4533.07692371;2694.35897110;3217.30769016;2662.05127872;2726.02563783;-0.00000896;-0.00000896;3906.79487110;2960.89743319;2732.05127886;4333.33333355;2663.07691975;4240.51282052;4073.20512786;4794.87179606
