Gyro-X;Gyro-Z;AF3;Gyro-Y;T7;Acc-X;Pz;QualityData_1;QualityData_2;Acc-Z;Acc-Y;T8;Mag-X;AF4;Mag-Z;Mag-Y;Mag-X;Gyro-X 
4142.56410236;3943.84615322;3447.56410090;4267.94871802;3940.25640963;2435.89743208;-0.00000896;-0.00000896;4533.07692371;2861.15384324;3057.30768981;4303.20512835;3616.28204997;4171.02564089;4071.28205094;4139.48717928
4169.74358961;4011.92307644;3446.41025475;4303.20512835;3911.79487110;2433.71794490;-0.00000896;-0.00000896;4502.82051338;2856.41025350;3744.74358871;4302.17948732;3545.76922931;4171.66666653;4071.92307658;4172.30769217
4172.94871781;4105.12820485;3352.94871608;4338.20512842;3781.92307595;2466.28204753;-0.00000896;-0.00000896;4464.10256459;2858.71794580;3775.12820416;4306.15384630;3516.79487027;4172.94871781;4071.28205094;4172.43589730
4172.82051269;4172.94871781;3478.97435738;4370.89743618;3808.84615295;2434.48717567;-0.00000896;-0.00000896;4430.76923119;2889.61538177;3809.87179397;4302.94871809;3547.69230624;4171.66666653;4076.02564068;4172.43589730
4174.23076910;4234.48717949;3618.20512689;4367.43589772;3913.58974290;2430.38461157;-0.00000896;-0.00000896;4371.92307720;2957.82051011;3778.71794775;4304.10256425;3780.12820416;4173.71794858;4071.66666632;4172.43589730
4173.97435884;4241.53846154;3479.99999841;4336.92307714;3679.74358857;2370.38461143;-0.00000896;-0.00000896;4302.05128219;3024.61538205;3649.23076798;4304.10256425;3519.61538309;4173.58974345;4071.66666632;4172.43589730
4202.30769224;4266.79487187;3650.25640901;4301.28205142;3778.07692211;2303.20512411;-0.00000896;-0.00000896;4274.10256418;3118.71794636;3649.61538337;4303.71794886;3747.82051178;4173.07692294;4071.66666632;4205.12820506
4204.87179481;4241.53846154;3451.92307526;4272.30769238;3678.20512703;2267.17948301;-0.00000896;-0.00000896;4300.25641040;3120.89743354;3646.79487055;4304.35897450;3643.46153721;4172.30769217;4044.61538420;4205.12820506
4234.10256411;4236.41025641;3545.76922931;4270.76923084;3650.12820388;2266.02563686;-0.00000896;-0.00000896;4300.89743604;3123.20512585;3577.94871656;4304.61538476;3648.58974234;4174.48717935;4071.92307658;4237.94871795
4234.23076923;4236.41025641;3648.84615260;4271.92307700;3814.10256320;2265.12820096;-0.00000896;-0.00000896;4333.07692329;3091.53845911;3683.71794754;4306.15384630;3841.53846071;4174.61538448;4044.23076882;4237.94871795
4236.02564103;4235.00000000;3550.51281906;4273.07692315;3716.79487069;2297.94871385;-0.00000896;-0.00000896;4337.56410278;3089.48717706;3516.28204976;4304.87179501;3715.76922966;4172.30769217;4072.30769196;4237.94871795
4234.10256411;4235.89743590;3584.74358836;4299.87179501;3780.64102467;2298.58973949;229.99999153;-0.00000896;4337.69230790;3060.38461289;3645.38461414;4307.30769245;3811.02564013;4172.56410243;4072.05128171;4237.94871795
4208.71794865;4238.07692308;3648.84615260;4272.05128212;3841.79487096;2298.97435488;36.92306803;-0.00000896;4335.00000021;3088.84615142;3683.46153728;4332.94871816;3774.87179390;4173.97435884;4071.79487145;4205.12820506
4206.79487173;4239.23076923;3580.76922938;4269.35897443;3807.82051192;2271.79486763;8377.05129081;-0.00000896;4334.87179508;3091.02563860;3584.74358836;4305.38461553;3748.97435794;4175.51282038;4072.17948684;4205.12820506
4206.28205122;4240.25641026;3677.69230651;4268.07692315;3877.94871719;2272.56409840;98.58973484;-0.00000896;4306.41025655;3086.41025398;3710.64102453;4307.05128219;3780.25640929;4173.20512807;4072.05128171;4205.12820506
4233.97435898;4241.41025641;3583.07692169;4267.94871802;3879.35897360;2266.53845737;229.99999153;-0.00000896;4301.66666681;3088.97435655;3678.97435780;4303.20512835;3780.64102467;4174.35897422;4072.43589709;4237.94871795
4237.30769231;4241.15384616;3676.79487062;4270.64102571;3909.87179418;2232.56409833;229.99999153;-0.00000896;4301.92307707;3120.12820277;3616.92307561;4305.25641040;3680.76922959;4172.43589730;4072.30769196;4237.94871795
4267.05128212;4239.87179488;3547.43589598;4272.05128212;3874.99999924;2267.05127789;229.99999153;-0.00000896;4299.48717963;3119.74358738;3580.64102426;4305.12820527;3714.99999889;4174.35897422;4072.56410222;4270.76923084
4271.28205136;4240.89743590;3676.53846036;4273.84615392;3976.53846099;2267.56409840;229.99999153;-0.00000896;4301.28205142;3093.07692065;3713.97435787;4305.38461553;3716.66666556;4174.99999986;4073.07692273;4270.76923084
4272.17948725;4239.35897436;3649.35897311;4274.61538469;3973.46153791;2234.35897012;229.99999153;-0.00000896;4332.82051303;3122.30768995;3644.87179362;4305.25641040;3746.66666563;4172.43589730;4072.94871761;4270.76923084
4270.89743597;4236.92307693;3715.25640915;4272.30769238;4038.33333292;2231.79486756;229.99999153;-0.00000896;4337.69230790;3121.53845918;3681.02563985;4304.87179501;3845.89743507;4173.97435884;4073.07692273;4270.76923084
4269.74358982;4235.25641026;3647.05128080;4270.76923084;4011.53846106;2233.07691884;229.99999153;-0.00000896;4365.12820541;3154.35897207;3610.25640894;4304.61538476;3749.61538358;4173.20512807;4072.69230735;4270.76923084
4241.02564103;4233.84615385;3643.71794747;4271.41025648;3912.30769162;2237.94871371;229.99999153;-0.00000896;4338.97435919;3118.58974123;3650.25640901;4304.48717963;3711.15384505;4174.99999986;4073.33333299;4237.94871795
4236.15384616;4234.10256411;3843.58974276;4269.61538469;4171.79487166;2265.51281635;229.99999153;-0.00000896;4340.38461560;3124.48717713;3847.30769148;4305.64102578;3974.10256355;4174.48717935;4073.20512786;4237.94871795
4208.46153840;4234.23076923;3643.84615260;4270.76923084;3945.25640963;2265.64102148;229.99999153;-0.00000896;4367.56410285;3124.23076687;3710.25640915;4305.38461553;3808.07692218;4174.61538448;4072.30769196;4205.12820506
4204.74358968;4236.53846154;3808.58974269;4271.15384623;4077.56410222;2264.61538045;229.99999153;-0.00000896;4337.69230790;3125.12820277;3744.35897332;4306.53846168;3879.48717873;4174.61538448;4073.58974325;4205.12820506
4203.84615378;4237.82051282;3716.66666556;4270.64102571;4041.02564061;2238.07691884;229.99999153;-0.00000896;4335.51282073;3123.84615149;3774.99999903;4302.43589758;3876.02564027;4174.35897422;4073.07692273;4205.12820506
4203.84615378;4239.48717949;3745.64102460;4273.33333341;4077.43589709;2266.92307276;229.99999153;-0.00000896;4306.28205142;3120.12820277;3677.69230651;4303.84615399;3777.56410160;4175.12820499;4072.94871761;4205.12820506
4204.35897429;4241.28205129;3845.38461455;4271.66666674;4139.35897415;2270.64102148;229.99999153;-0.00000896;4304.35897450;3121.53845918;3840.51281968;4304.74358989;3976.15384560;4174.48717935;4074.10256376;4205.12820506
4205.51282045;4269.35897443;3776.53846057;4270.12820520;4102.69230742;2269.87179071;229.99999153;-0.00000896;4304.23076937;3120.89743354;3649.10256286;4305.00000014;3843.97435814;4174.23076910;4074.10256376;4205.12820506
4206.15384609;4271.15384623;3747.56410153;4269.74358982;4076.66666632;2269.23076507;229.99999153;-0.00000896;4274.10256418;3157.56410027;3808.97435807;4304.61538476;3847.30769148;4173.58974345;4073.97435863;4205.12820506
4208.71794865;4273.97435905;3813.84615295;4268.46153853;4071.79487145;2236.66666243;229.99999153;-0.00000896;4269.87179495;3188.07692086;3683.46153728;4333.71794893;3878.33333257;4173.97435884;4074.48717914;4205.12820506
4235.25641026;4274.35897443;3778.58974262;4268.58974366;4074.99999966;2206.92307262;229.99999153;-0.00000896;4273.46153853;3189.74358752;3716.15384505;4305.64102578;3875.38461462;4201.66666660;4074.48717914;4237.94871795
4237.05128206;4273.71794879;3873.58974283;4270.12820520;4107.69230742;2231.92307269;229.99999153;-0.00000896;4272.94871802;3188.46153624;3679.61538344;4307.43589758;3873.84615309;4174.61538448;4074.23076889;4237.94871795
4241.28205129;4273.71794879;3875.25640950;4270.89743597;4172.05128192;2200.12820082;229.99999153;-0.00000896;4274.74358982;3217.30769016;3676.92307575;4332.82051303;3910.12820444;4174.99999986;4074.48717914;4237.94871795
4268.58974366;4274.35897443;3779.61538365;4272.69230777;4110.64102537;2206.28204698;229.99999153;-0.00000896;4271.15384623;3222.43589529;3649.10256286;4304.74358989;3944.23076861;4173.58974345;4072.69230735;4270.76923084
4271.79487187;4300.51282066;3813.33333243;4274.74358982;4071.28205094;2201.79486749;229.99999153;-0.00000896;4273.07692315;3223.58974144;3712.56410146;4306.66666681;3876.02564027;4174.74358961;4073.84615350;4270.76923084
4273.84615392;4299.61538476;3880.64102488;4274.48717956;4205.25641019;2173.97435460;229.99999153;-0.00000896;4303.46153860;3220.89743375;3809.99999910;4305.12820527;4039.10256369;4175.51282038;4075.12820478;4270.76923084
4299.87179501;4299.74358989;3781.66666570;4302.17948732;4073.46153812;2173.71794434;229.99999153;-0.00000896;4304.10256425;3223.46153631;3648.71794747;4306.92307707;3845.51281968;4174.35897422;4075.76923043;4303.58974373
4302.43589758;4301.53846168;3807.43589654;4302.82051296;4136.92307672;2205.89743159;229.99999153;-0.00000896;4305.12820527;3218.84615170;3712.43589633;4306.28205142;3877.82051206;4175.64102551;4075.51282017;4303.58974373
4303.97435912;4304.61538476;3841.92307609;4306.79487194;4105.12820485;2203.97435467;229.99999153;-0.00000896;4332.43589765;3220.25640811;3650.89743465;4306.28205142;3778.46153749;4174.61538448;4075.38461504;4303.58974373
4305.12820527;4307.17948732;3709.99999889;4334.74358996;4168.33333320;2200.64102134;229.99999153;-0.00000896;4333.07692329;3249.74358766;3578.97435759;4332.69230790;3745.89743486;4174.10256397;4076.15384581;4303.71794886
4303.58974373;4332.56410278;3874.48717873;4337.30769252;4205.12820506;2167.82050845;229.99999153;-0.00000896;4306.66666681;3256.53845946;3809.10256320;4306.92307707;3976.15384560;4201.53846147;4075.76923043;4303.71794886
4302.30769245;4332.30769252;3744.74358871;4366.28205156;4074.74358940;2169.74358537;229.99999153;-0.00000896;4301.02564117;3288.97435696;3613.20512689;4305.89743604;3841.92307609;4176.15384602;4076.66666632;4303.71794886
4302.17948732;4306.66666681;3847.43589661;4366.79487208;4171.15384602;2168.07691870;229.99999153;-0.00000896;4268.71794879;3316.79486985;3710.51281940;4305.00000014;3874.87179411;4175.64102551;4076.79487145;4303.71794886
4302.17948732;4304.10256425;3842.94871712;4340.12820534;4138.20512800;2139.48717504;229.99999153;-0.00000896;4268.33333341;3347.69230582;3681.66666549;4307.05128219;3912.43589674;4201.53846147;4077.30769196;4303.71794886
4301.02564117;4302.30769245;3843.33333250;4338.33333355;4137.43589723;2172.82050845;229.99999153;-0.00000896;4239.23076923;3287.69230568;3617.17948586;4305.64102578;3878.46153770;4201.41025634;4077.30769196;4303.71794886
4299.74358989;4300.76923091;3908.20512751;4332.69230790;4269.74358982;2140.64102120;229.99999153;-0.00000896;4239.61538462;3287.94871594;3746.28205024;4306.15384630;3945.51281989;4201.53846147;4077.82051248;4303.71794886
4272.43589751;4300.76923091;3845.12820430;4303.58974373;4169.61538448;2136.53845710;40.38460649;-0.00000896;4268.46153853;3317.05128011;3675.89743472;4332.69230790;3912.30769162;4201.15384609;4077.30769196;4270.76923084
4268.33333341;4300.00000014;3875.38461462;4302.94871809;4169.48717935;2134.61538017;104.23076048;-0.00000896;4268.46153853;3316.79486985;3648.07692183;4332.94871816;3938.97435835;4201.79487173;4077.82051248;4270.76923084
4240.89743590;4300.76923091;3842.69230686;4302.69230784;4175.76923063;2138.84614940;229.99999153;-0.00000896;4273.20512828;3321.53845960;3714.23076812;4307.17948732;3909.74358905;4176.02564089;4077.56410222;4237.94871795
4237.17948718;4301.28205142;4041.92307651;4305.76923091;4269.48717956;2168.33332896;104.23076048;-0.00000896;4272.30769238;3320.38461344;3774.74358877;4305.89743604;4044.61538420;4201.92307686;4103.20512793;4237.94871795
4235.89743590;4302.43589758;3880.76923001;4307.43589758;4337.82051303;2139.87179043;-0.00000896;-0.00000896;4300.51282066;3321.66666472;3682.17948600;4306.15384630;4038.97435856;4201.41025634;4102.94871767;4237.94871795
4208.71794865;4302.82051296;4044.10256369;4335.00000021;4338.46153867;2138.07691863;-0.00000896;-0.00000896;4302.30769245;3349.35897249;3716.28205017;4333.33333355;4070.76923043;4201.41025634;4077.69230735;4205.25641019
4204.61538455;4304.10256425;3946.53846092;4339.74358996;4306.28205142;2137.82050838;-0.00000896;-0.00000896;4306.28205142;3383.46153666;3678.46153728;4334.48717970;4103.97435870;4201.92307686;4103.20512793;4205.25641019
4202.82051275;4302.43589758;3973.20512765;4367.05128233;4270.89743597;2139.48717504;-0.00000896;-0.00000896;4305.51282066;3385.89743409;3645.51281927;4305.64102578;4006.53846106;4176.28205115;4104.87179460;4205.25641019
4175.12820499;4302.30769245;4108.84615357;4370.25641054;4402.56410292;2166.79486742;-0.00000896;-0.00000896;4302.56410271;3417.94871622;3845.51281968;4307.05128219;4104.99999973;4203.33333327;4103.84615357;4172.43589730
4174.35897422;4301.41025655;3911.53846085;4399.74359009;4234.74358975;2103.20512369;-0.00000896;-0.00000896;4239.48717949;3449.99999834;3678.07692190;4307.43589758;3977.43589688;4203.71794865;4104.23076896;4172.43589730
4173.84615371;4272.94871802;4039.99999959;4403.71794907;4332.69230790;2037.56409791;-0.00000896;-0.00000896;4236.28205129;3454.23076757;3680.38461421;4332.94871816;4037.56410215;4203.07692301;4104.23076896;4172.43589730
4172.30769217;4241.15384616;3940.51281989;4431.41025683;4204.99999993;2042.17948253;-0.00000896;-0.00000896;4206.79487173;3483.97435738;3710.38461428;4332.30769252;4037.43589702;4206.28205122;4104.61538434;4172.43589730
4170.64102551;4207.17948711;3944.48717887;4433.97435940;4236.53846154;2102.05127754;-0.00000896;-0.00000896;4171.66666653;3452.17948552;3583.58974220;4332.30769252;4038.58974318;4203.58974352;4105.76923050;4172.43589730
4143.46153826;4175.64102551;4110.12820485;4403.33333368;4272.05128212;2134.48717504;-0.00000896;-0.00000896;4137.82051262;3450.25640859;3748.84615281;4332.69230790;4140.12820492;4202.94871788;4103.97435870;4139.61538441
4141.79487159;4173.58974345;4109.74358947;4397.94871830;4307.05128219;2139.87179043;-0.00000896;-0.00000896;4109.23076896;3388.20512640;3748.46153742;4334.35897457;4102.69230742;4206.41025634;4104.74358947;4139.61538441
4139.61538441;4173.71794858;4205.89743583;4369.23076951;4370.00000028;2168.20512383;-0.00000896;-0.00000896;4108.58974332;3384.23076743;3645.38461414;4332.30769252;4202.30769224;4206.53846147;4104.48717921;4139.61538441
4139.48717928;4201.92307686;4299.74358989;4366.92307720;4398.20512856;2168.07691870;-0.00000896;-0.00000896;4135.76923056;3351.92307505;3713.07692197;4334.74358996;4239.10256411;4207.43589737;4104.74358947;4139.61538441
4138.33333313;4207.30769224;4307.43589758;4371.53846182;4335.12820534;2140.51281607;-0.00000896;-0.00000896;4108.07692280;3316.41025447;3677.30769113;4335.51282073;4266.79487187;4206.41025634;4104.35897408;4139.61538441
4138.84615364;4237.05128206;4372.05128233;4401.15384651;4306.02564117;2172.56409819;-0.00000896;-0.00000896;4107.43589716;3289.61538260;3742.94871691;4307.43589758;4339.10256431;4206.92307686;4104.10256383;4139.61538441
4138.71794851;4271.02564110;4372.05128233;4404.35897471;4306.79487194;2233.07691884;-0.00000896;-0.00000896;4105.51282024;3283.71794671;3778.46153749;4333.07692329;4470.25641075;4206.28205122;4104.74358947;4139.61538441
4137.82051262;4305.89743604;4368.20512849;4435.25641068;4305.64102578;2234.35897012;-0.00000896;-0.00000896;4106.92307665;3256.79486971;3649.74358850;4306.79487194;4466.79487229;4233.97435898;4107.17948691;4139.61538441
4138.07692287;4366.66666695;4403.97435933;4465.38461587;4336.28205149;2207.05127775;-0.00000896;-0.00000896;4104.74358947;3288.07692107;3643.58974234;4332.56410278;4368.71794900;4207.43589737;4104.99999973;4139.74358954
4136.15384595;4400.89743625;4502.69230825;4496.53846210;4431.15384657;2232.05127782;-0.00000896;-0.00000896;4072.43589709;3353.58974172;3747.17948614;4333.07692329;4535.64102627;4208.20512814;4105.64102537;4139.74358954
4137.05128185;4431.66666709;4500.51282107;4504.23076979;4402.82051317;2204.10255980;-0.00000896;-0.00000896;4041.28205087;3383.46153666;3749.35897332;4307.43589758;4531.28205191;4208.84615378;4106.28205101;4139.74358954
4140.25641005;4436.41025683;4499.74359030;4534.23076986;4405.12820548;2173.58973922;-0.00000896;-0.00000896;4009.23076875;3447.30769064;3774.74358877;4333.97435919;4627.94871879;4234.23076923;4106.53846126;4139.74358954
4141.92307672;4438.71794914;4502.43589800;4566.92307762;4306.53846168;2138.97435453;-0.00000896;-0.00000896;3946.53846092;3453.58974193;3708.84615274;4307.30769245;4470.64102613;4234.48717949;4107.17948691;4139.74358954
4169.74358961;4464.74359023;4403.07692343;4597.56410333;4207.94871788;2137.56409812;-0.00000896;-0.00000896;3913.20512751;3513.07692155;3677.05128087;4334.61538483;4438.20512863;4236.02564103;4106.92307665;4172.69230756
4170.51282038;4438.33333375;4531.41025704;4627.82051366;4398.46153881;2108.20512369;-0.00000896;-0.00000896;3880.89743514;3518.20512668;3746.92307588;4333.46153867;4497.17948774;4236.79487180;4108.20512793;4172.69230756
4170.76923063;4436.41025683;4369.61538490;4632.69230853;4267.69230777;2134.74358530;229.99999153;-0.00000896;3879.35897360;3580.25640887;3581.92307554;4332.43589765;4437.82051324;4237.43589744;4108.71794844;4172.69230756
4168.84615371;4435.38461581;4397.94871830;4662.17948809;4333.46153867;2166.66666229;229.99999153;-0.00000896;3840.89743507;3610.89743458;3550.76922931;4305.89743604;4368.97435926;4239.48717949;4109.35897408;4172.69230756
4143.46153826;4434.48717991;4274.48717956;4664.74359065;4171.79487166;2137.17948274;229.99999153;-0.00000896;3714.35897325;3650.12820388;3448.33333167;4332.94871816;4269.35897443;4237.82051282;4109.61538434;4139.87179467
4169.10256397;4404.23076958;4400.89743625;4662.82051373;4235.89743590;2103.84614933;229.99999153;-0.00000896;3644.61538337;3679.74358857;3517.17948565;4333.97435919;4304.23076937;4240.51282052;4109.99999973;4172.69230756
4169.74358961;4369.87179515;4405.51282086;4627.94871879;4240.12820513;2042.30768766;70.64101682;-0.00000896;3583.84615246;3711.53846043;3577.43589605;4306.92307707;4337.30769252;4240.51282052;4110.51282024;4172.69230756
4170.64102551;4336.79487201;4434.23076965;4595.76923154;4334.35897457;2068.20512362;8337.94872664;-0.00000896;3577.56410118;3712.30769120;3548.20512675;4332.69230790;4335.64102585;4241.79487180;4137.56410236;4172.69230756
4173.46153833;4301.92307707;4208.58974352;4566.41025711;4140.12820492;2074.23076465;229.99999153;-0.00000896;3548.33333188;3683.07692190;3519.10256258;4306.79487194;4274.35897443;4241.66666667;4110.64102537;4172.56410243
4201.92307686;4273.20512828;4301.28205142;4564.35897506;4240.38461539;2140.12820068;8337.94872664;-0.00000896;3516.66666514;3650.25640901;3383.84615204;4306.66666681;4203.46153840;4267.43589751;4135.38461518;4205.38461532
4205.89743583;4272.82051289;4271.53846161;4565.51282121;4172.94871781;2173.20512383;229.99999153;-0.00000896;3480.25640866;3648.97435773;3518.84615232;4305.25641040;4236.92307693;4266.92307700;4137.30769210;4205.38461532
4236.28205129;4274.48717956;4238.07692308;4568.33333403;4169.61538448;2173.33332896;8337.94872664;-0.00000896;3414.87179314;3648.20512696;3347.69230582;4307.05128219;4169.87179474;4267.69230777;4136.41025621;4238.20512821
4266.66666674;4300.12820527;4300.12820527;4596.53846231;4238.07692308;2138.58973915;229.99999153;-0.00000896;3515.12820360;3649.48717824;3413.58974186;4305.76923091;4173.84615371;4269.74358982;4136.02564082;4271.15384623
4267.17948725;4273.46153853;4333.97435919;4597.69230846;4304.74358989;2108.58973908;8337.94872664;-0.00000896;3582.30769092;3677.69230651;3481.53845994;4306.28205142;4301.66666681;4270.25641033;4136.53846133;4271.15384623
4240.51282052;4270.64102571;4108.33333306;4599.74359051;4009.87179439;2140.64102120;229.99999153;-0.00000896;3517.30769078;3678.97435780;3223.46153631;4306.66666681;4009.87179439;4269.10256418;4136.79487159;4238.33333334
4239.48717949;4269.74358982;4105.64102537;4627.82051366;4008.07692259;2199.87179057;8337.94872664;-0.00000896;3452.05128039;3650.25640901;3222.94871580;4304.61538476;4008.71794824;4271.66666674;4137.05128185;4238.33333334
4240.76923077;4268.46153853;4241.79487180;4627.94871879;4172.17948704;2236.92307269;229.99999153;-0.00000896;3383.97435717;3677.17948600;3222.05127990;4304.87179501;4141.28205108;4272.05128212;4136.79487159;4238.33333334
4268.58974366;4269.48717956;4367.69230797;4594.87179564;4234.35897436;2237.05127782;8337.94872664;-0.00000896;3286.66666466;3680.76922959;3548.33333188;4306.15384630;4398.20512856;4273.33333341;4136.41025621;4271.15384623
4274.10256418;4269.35897443;4370.38461567;4535.25641089;4171.02564089;2200.76922646;229.99999153;-0.00000896;3256.41025433;3712.56410146;3351.92307505;4305.89743604;4141.79487159;4273.84615392;4136.92307672;4271.02564110
4302.82051296;4268.46153853;4075.38461504;4530.51282114;3912.94871726;2202.17948288;8337.94872664;-0.00000896;3283.33333132;3714.48717838;3184.99999778;4302.94871809;4040.51282010;4301.66666681;4139.74358954;4303.84615399
4306.15384630;4241.53846154;4172.56410243;4502.69230825;4040.38461497;2199.61538031;229.99999153;-0.00000896;3285.12820312;3712.56410146;3217.56410041;4305.64102578;4042.17948677;4299.48717963;4137.17948697;4303.84615399
4306.66666681;4237.69230770;4103.84615357;4503.20512876;3942.82051220;2202.43589313;8337.94872664;-0.00000896;3287.17948517;3681.28205010;3188.71794650;4300.89743604;3978.58974304;4300.51282066;4138.46153826;4303.84615399
4305.89743604;4209.10256404;4106.41025614;4504.10256466;3978.58974304;2236.28204705;229.99999153;-0.00000896;3288.46153645;3679.35897318;3220.38461323;4304.35897450;4103.07692280;4301.92307707;4136.79487159;4303.84615399
4305.00000014;4207.82051275;4175.12820499;4529.74359037;4006.28205080;2271.02563686;8337.94872664;-0.00000896;3316.53845960;3649.23076798;3251.92307484;4302.56410271;4040.89743548;4301.41025655;4136.28205108;4303.84615399
4302.17948732;4233.97435898;4102.56410229;4530.00000063;3977.56410201;2301.41025231;229.99999153;-0.00000896;3316.02563908;3647.94871670;3222.69230554;4302.17948732;3977.30769176;4301.28205142;4136.66666646;4303.84615399
4273.97435905;4236.41025641;4037.43589702;4530.12820576;4007.43589695;2304.35897026;8337.94872664;-0.00000896;3314.99999806;3645.64102439;3156.41025412;4302.30769245;3939.48717887;4303.33333348;4136.92307672;4271.02564110
4270.25641033;4241.02564103;4041.53846113;4532.94871858;4005.38461490;2334.10256008;229.99999153;-0.00000896;3286.53845953;3646.02563978;3188.71794650;4303.20512835;3911.66666598;4302.94871809;4136.53846133;4271.02564110
4267.94871802;4241.66666667;4072.94871761;4534.48718012;4006.92307644;2333.97435495;8337.94872664;-0.00000896;3254.48717741;3643.84615260;3187.43589522;4301.41025655;3846.92307609;4303.71794886;4137.05128185;4271.02564110
4241.28205129;4269.10256418;4040.64102523;4536.66666730;4004.48717900;2338.33332931;229.99999153;-0.00000896;3223.97435682;3645.51281927;3314.87179293;4304.48717963;3977.43589688;4305.12820527;4136.79487159;4238.20512821
4239.61538462;4269.61538469;4043.46153805;4564.74359044;4041.79487138;2367.82050886;8337.94872664;-0.00000896;3189.74358752;3651.15384491;3257.05127997;4300.38461553;3873.97435821;4304.48717963;4136.79487159;4238.20512821
4240.00000000;4270.89743597;3645.64102439;4567.69230839;3777.43589647;2368.07691912;229.99999153;-0.00000896;3153.71794643;3678.46153728;2957.43589473;4301.53846168;3583.20512682;4304.48717963;4137.56410236;4238.20512821
4239.61538462;4272.56410264;3741.79487076;4596.15384692;3811.41025551;2396.79486791;8337.94872664;-0.00000896;3122.43589508;3677.30769113;3085.76922834;4302.43589758;3647.94871670;4306.79487194;4137.43589723;4238.33333334
4239.87179488;4273.07692315;3709.74358864;4596.92307769;3846.41025558;2402.43589355;229.99999153;-0.00000896;3089.10256167;3650.12820388;3060.38461289;4301.02564117;3749.48717845;4305.38461553;4136.53846133;4238.33333334
4238.58974359;4300.38461553;3744.48717845;4595.64102641;3876.02564027;2431.41025259;8337.94872664;-0.00000896;3052.82051032;3679.61538344;3122.05127969;4299.74358989;3713.33333223;4332.82051303;4138.07692287;4238.33333334
4239.61538462;4302.56410271;3781.92307595;4595.25641102;3913.33333264;2402.82050893;229.99999153;-0.00000896;3022.17948461;3710.89743479;3091.15384373;4301.66666681;3617.94871663;4333.46153867;4137.82051262;4238.33333334
4240.25641026;4301.53846168;3617.69230638;4570.12820583;3878.33333257;2403.33332945;72.82050400;-0.00000896;2988.97435634;3712.56410146;3122.05127969;4271.41025648;3551.02563957;4333.46153867;4138.07692287;4238.20512821
4240.89743590;4299.87179501;3714.87179376;4567.43589813;3943.71794810;2432.30768849;164.48717087;-0.00000896;2959.10256140;3682.56410139;3123.84615149;4299.48717963;3644.74358850;4333.07692329;4137.56410236;4238.20512821
4238.46153847;4274.35897443;3774.35897339;4564.61538531;3978.20512765;2461.92307317;33.07691419;-0.00000896;2956.92307422;3683.84615267;2694.35897110;4273.71794879;3777.69230672;4335.64102585;4138.33333313;4238.20512821
4238.33333334;4274.74358982;3808.33333243;4529.48718012;4108.46153819;2495.25640658;229.99999153;-0.00000896;2954.35897165;3677.56410139;2564.87179133;4273.07692315;3715.38461428;4334.74358996;4137.17948697;4238.20512821
4236.66666667;4299.74358989;3848.07692225;4532.56410319;4069.99999966;2497.69230401;229.99999153;-0.00000896;2927.56409979;3680.64102446;2594.74358627;4273.46153853;3782.05128108;4334.61538483;4138.46153826;4238.20512821
4235.25641026;4302.94871809;3811.53846064;4531.92307755;4077.43589709;2499.35897068;229.99999153;-0.00000896;2923.97435620;3710.25640915;2529.99999639;4271.28205136;3709.61538351;4335.76923098;4136.92307672;4238.20512821
4234.35897436;4304.48717963;3677.43589626;4530.38461601;3974.23076868;2530.76922716;229.99999153;-0.00000896;2925.25640748;3708.84615274;2467.82050907;4271.15384623;3682.17948600;4336.02564124;4138.97435877;4238.20512821
4208.46153840;4306.28205142;3813.20512731;4529.74359037;4201.66666660;2562.30768877;-0.00000896;-0.00000896;2922.30768953;3683.07692190;2501.41025273;4272.82051289;3775.76922980;4334.48717970;4138.71794851;4205.38461532
4206.66666660;4333.46153867;3709.87179376;4531.92307755;4006.28205080;2564.74358620;-0.00000896;-0.00000896;2892.05127921;3679.35897318;2560.38461184;4273.07692315;3741.53846050;4336.92307714;4139.35897415;4205.38461532
4206.02564096;4336.79487201;3778.33333236;4534.87179550;4072.05128171;2593.20512473;-0.00000896;-0.00000896;2889.61538177;3712.05128094;2501.53845786;4269.61538469;3742.69230665;4337.43589765;4139.74358954;4205.38461532
4205.25641019;4365.25641054;3747.56410153;4563.20512890;4038.97435856;2626.66666327;-0.00000896;-0.00000896;2855.64102273;3682.30769113;2532.56409895;4273.07692315;3810.64102474;4338.84615406;4139.87179467;4205.38461532
4206.02564096;4371.66666695;3876.28205052;4567.17948788;4136.28205108;2627.69230429;-0.00000896;-0.00000896;2795.12820207;3742.56410153;2075.12820055;4269.61538469;3807.17948628;4339.61538483;4139.99999980;4205.38461532
4206.28205122;4400.51282086;3840.76922994;4595.51282128;4107.94871767;2630.76922737;-0.00000896;-0.00000896;2761.66666354;3741.66666563;2107.56409805;4271.15384623;3876.28205052;4338.46153867;4140.51282031;4205.51282045
4206.41025634;4405.89743625;3646.92307568;4596.02564179;3940.64102502;2632.05127865;-0.00000896;-0.00000896;2728.84615065;3741.79487076;2035.76922612;4269.61538469;3677.94871677;4339.23076944;4140.51282031;4205.51282045
4205.38461532;4432.30769273;3482.17948559;4568.20512890;3748.58974255;2659.48717616;-0.00000896;-0.00000896;2695.12820187;3746.41025537;1911.66666174;4267.94871802;3481.53845994;4365.51282079;4141.79487159;4205.38461532
4204.61538455;4433.71794914;3548.58974213;4564.23076993;3813.58974269;2660.38461205;-0.00000896;-0.00000896;2662.56409923;3778.20512724;2041.92307227;4270.00000007;3580.89743451;4366.41025669;4141.41025621;4205.38461532
4204.35897429;4434.74359016;3548.46153701;4533.71794935;3748.46153742;2659.10256077;-0.00000896;-0.00000896;2629.10256070;3841.92307609;1941.15384129;4268.07692315;3484.10256251;4367.56410285;4140.64102544;4205.38461532
4203.20512814;4434.35897478;3450.64102398;4501.79487235;3745.64102460;2663.58974026;-0.00000896;-0.00000896;2567.69230415;3842.05128122;1811.28204614;4269.10256418;3418.97435724;4366.28205156;4141.92307672;4205.38461532
4204.10256404;4436.02564145;3285.89743389;4498.71794928;3513.97435745;2693.58974033;-0.00000896;-0.00000896;2530.51281690;3873.33333257;1843.07691801;4268.07692315;3287.69230568;4366.53846182;4143.20512800;4205.38461532
4204.61538455;4435.38461581;3381.66666486;4469.74359023;3516.28204976;2694.61538135;-0.00000896;-0.00000896;2527.82050921;3873.46153770;1910.38461045;4267.43589751;3318.33333139;4366.02564131;4142.05128185;4205.38461532
4207.30769224;4434.87179529;3676.28205010;4437.17948760;3809.74358884;2695.38461212;-0.00000896;-0.00000896;2500.51281683;3878.84615309;1872.30768731;4241.28205129;3585.12820374;4368.07692336;4143.07692287;4205.25641019
4208.58974352;4434.87179529;3712.17948607;4431.28205170;3776.92307595;2725.76922758;-0.00000896;-0.00000896;2498.58973991;3876.92307616;2040.51281586;4238.84615385;3709.23076812;4367.82051310;4142.94871774;4205.25641019
4235.25641026;4437.17948760;3713.07692197;4400.38461574;3807.43589654;2729.99999681;-0.00000896;-0.00000896;2499.74358606;3912.30769162;2100.51281600;4241.66666667;3744.99999896;4367.82051310;4168.33333320;4238.07692308
4238.58974359;4438.84615427;4273.46153853;4371.53846182;4237.17948718;2732.05127886;-0.00000896;-0.00000896;2499.61538094;3907.56410187;2330.38461136;4240.25641026;4205.76923070;4367.94871823;4168.46153833;4238.07692308
4238.84615385;4464.61538511;4235.12820513;4366.92307720;4241.53846154;2731.53845835;-0.00000896;-0.00000896;2501.79486812;3913.71794803;2297.69230360;4238.33333334;4235.89743590;4368.20512849;4168.84615371;4238.07692308
4237.94871795;4465.38461587;4273.97435905;4336.79487201;4299.48717963;2758.97435585;-0.00000896;-0.00000896;2528.20512460;3913.33333264;2533.07691947;4239.35897436;4371.41025669;4365.64102592;4143.46153826;4238.07692308
4236.53846154;4466.15384664;4241.79487180;4333.71794893;4335.51282073;2761.53845842;-0.00000896;-0.00000896;2531.02563742;3943.84615322;2269.48717532;4240.64102564;4205.64102558;4368.07692336;4168.97435884;4238.07692308
4234.87179488;4468.97435946;4236.15384616;4306.15384630;4207.30769224;2758.20512508;-0.00000896;-0.00000896;2529.23076562;3945.89743528;2499.74358606;4238.33333334;4269.35897443;4368.20512849;4169.74358961;4237.94871795
4208.97435891;4469.74359023;4205.38461532;4300.64102578;4239.35897436;2730.89743270;-0.00000896;-0.00000896;2529.61538101;4006.28205080;2498.07691940;4241.15384616;4202.82051275;4368.84615413;4170.12820499;4205.12820506
4208.20512814;4469.87179536;4073.07692273;4274.48717956;4170.64102551;2761.53845842;-0.00000896;-0.00000896;2528.33332972;4011.15384567;2401.02563714;4239.87179488;4072.43589709;4367.17948746;4170.38461525;4205.12820506
4235.25641026;4469.23076972;4011.28205080;4270.25641033;4171.92307679;2764.35897124;-0.00000896;-0.00000896;2559.99999646;4006.79487131;2430.38461157;4236.92307693;4073.33333299;4368.46153874;4170.89743576;4237.94871795
4209.10256404;4497.17948774;4038.33333292;4267.82051289;4208.71794865;2757.69230457;229.99999153;-0.00000896;2563.07691954;4039.99999959;2529.99999639;4241.28205129;4141.66666646;4368.33333362;4171.15384602;4205.12820506
4233.84615385;4497.56410312;4008.07692259;4267.17948725;4138.07692287;2724.99999681;0.12819617;-0.00000896;2566.53845800;4071.92307658;2534.35897075;4239.35897436;4038.20512779;4369.35897464;4171.66666653;4237.94871795
4208.33333327;4470.89743639;3907.05128136;4239.10256411;4044.99999959;2731.92307373;8341.02564972;-0.00000896;2568.07691954;4075.38461504;2462.30768856;4240.00000000;4011.79487131;4367.30769259;4171.66666653;4205.12820506
4207.43589737;4469.61538511;4042.69230728;4238.84615385;4172.82051269;2757.30768918;8240.12821361;-0.00000896;2565.64102210;4074.61538427;2532.69230408;4236.02564103;4105.38461511;4369.61538490;4171.41025628;4205.12820506
4234.10256411;4468.97435946;4137.30769210;4238.84615385;4239.61538462;2728.84615065;229.99999153;-0.00000896;2566.02563749;4107.05128178;2598.46153499;4239.48717949;4107.30769203;4367.94871823;4172.56410243;4237.94871795
4234.74358975;4468.20512870;3942.94871733;4239.48717949;4138.07692287;2758.07691995;229.99999153;-0.00000896;2567.05127851;4104.35897408;2532.17948357;4239.48717949;4074.99999966;4368.97435926;4172.56410243;4237.94871795
4236.66666667;4468.97435946;3976.02564047;4241.28205129;4171.28205115;2763.46153534;229.99999153;-0.00000896;2567.17948364;4107.30769203;2596.53845807;4239.35897436;4071.53846119;4371.92307720;4173.46153833;4237.94871795
4238.97435898;4469.61538511;4041.15384574;4240.89743590;4173.46153833;2756.92307380;229.99999153;-0.00000896;2567.94871441;4136.92307672;2666.02563769;4238.20512821;4074.87179453;4369.48717977;4173.58974345;4237.94871795
4241.15384616;4469.10256459;3941.41025579;4240.00000000;4175.51282038;2729.99999681;229.99999153;-0.00000896;2598.58974012;4135.76923056;2625.89743250;4239.74358975;4073.58974325;4367.30769259;4173.20512807;4237.94871795
4266.92307700;4467.30769280;4007.43589695;4241.02564103;4173.46153833;2759.61538149;229.99999153;-0.00000896;2633.07691968;4142.82051262;2760.89743277;4237.43589744;4143.07692287;4369.23076951;4173.97435884;4270.76923084
4241.28205129;4468.71794921;4170.76923063;4267.43589751;4365.89743618;2763.46153534;229.99999153;-0.00000896;2630.38461198;4135.64102544;2893.46153562;4238.07692308;4272.69230777;4369.48717977;4174.35897422;4237.94871795
4239.87179488;4496.92307748;4038.97435856;4271.92307700;4205.89743583;2791.53845848;229.99999153;-0.00000896;2625.64102224;4139.48717928;2828.84615086;4238.71794872;4203.84615378;4368.71794900;4174.23076910;4237.94871795
4240.64102564;4498.97435953;4077.43589709;4273.46153853;4174.61538448;2762.05127893;229.99999153;-0.00000896;2596.92307345;4140.25641005;2889.35897151;4237.56410257;4168.46153833;4368.84615413;4176.15384602;4237.94871795
4267.17948725;4502.56410312;4103.97435870;4300.51282066;4207.82051275;2764.23076611;229.99999153;-0.00000896;2593.46153499;4171.79487166;2926.41025363;4235.64102564;4206.28205122;4369.23076951;4174.99999986;4270.76923084
4269.10256418;4504.23076979;4236.41025641;4304.10256425;4240.89743590;2792.17948413;229.99999153;-0.00000896;2564.87179133;4172.17948704;2892.69230485;4234.87179488;4142.56410236;4368.20512849;4202.56410250;4270.76923084
4271.66666674;4533.20512883;4208.84615378;4303.46153860;4373.20512849;2827.43589445;229.99999153;-0.00000896;2532.17948357;4173.46153833;3025.76922820;4237.05128206;4401.66666702;4370.00000028;4175.25641012;4270.76923084
4302.05128219;4567.43589813;4268.20512828;4302.43589758;4369.23076951;2861.15384324;229.99999153;-0.00000896;2498.97435530;4171.66666653;3088.84615142;4235.38461539;4366.02564131;4370.00000028;4175.89743576;4303.58974373
4304.74358989;4601.79487256;4203.07692301;4300.25641040;4267.17948725;2855.64102273;229.99999153;-0.00000896;2499.35897068;4205.25641019;3024.87179230;4234.23076923;4301.66666681;4369.87179515;4175.76923063;4303.58974373
4333.07692329;4630.00000084;4136.02564082;4273.58974366;4334.87179508;2793.33333028;229.99999153;-0.00000896;2497.69230401;4207.82051275;2923.46153569;4236.79487180;4241.41025641;4370.00000028;4201.02564096;4336.41025662
4335.89743611;4631.66666750;4240.51282052;4272.82051289;4274.10256418;2757.56409944;229.99999153;-0.00000896;2532.69230408;4269.87179495;3151.53845925;4236.79487180;4366.02564131;4370.25641054;4201.41025634;4336.41025662
4334.87179508;4632.43589827;4338.84615406;4271.92307700;4433.33333375;2797.30768925;229.99999153;-0.00000896;2565.76922723;4238.20512821;3187.43589522;4207.82051275;4371.02564131;4368.46153874;4201.53846147;4336.41025662
4306.15384630;4634.35897520;4403.07692343;4271.79487187;4401.66666702;2856.79486888;229.99999153;-0.00000896;2561.02563749;4235.00000000;3187.30769009;4235.76923077;4435.00000042;4370.38461567;4201.15384609;4303.58974373
4299.74358989;4665.89743680;4299.48717963;4269.87179495;4372.82051310;2796.15384310;229.99999153;-0.00000896;2531.53845793;4269.87179495;3249.61538253;4208.46153840;4436.92307734;4369.74359003;4202.17948711;4303.58974373
4269.87179495;4667.05128296;4305.00000014;4266.92307700;4334.87179508;2728.71794553;229.99999153;-0.00000896;2561.02563749;4336.79487201;3086.92307449;4235.89743590;4272.69230777;4370.12820541;4201.28205122;4270.76923084
4238.58974359;4662.94871886;4202.69230763;4237.30769231;4306.41025655;2694.61538135;229.99999153;-0.00000896;2561.92307338;4403.58974394;3153.07692079;4206.66666660;4300.51282066;4370.25641054;4203.33333327;4237.94871795
4234.61538462;4632.30769315;4304.48717963;4236.53846154;4333.07692329;2795.89743284;229.99999153;-0.00000896;2500.89743222;4401.15384651;3089.48717706;4234.10256411;4333.07692329;4369.61538490;4203.84615378;4237.94871795
4207.56410250;4635.00000084;4106.92307665;4209.10256404;4173.20512807;2855.64102273;229.99999153;-0.00000896;2464.35897061;4402.05128240;3156.15384386;4235.51282052;4233.84615385;4370.25641054;4204.48717942;4205.12820506
4206.28205122;4661.92307783;3616.92307561;4203.33333327;3710.89743479;2759.61538149;229.99999153;-0.00000896;2496.92307324;4438.71794914;2663.58974026;4207.05128199;3616.66666535;4369.74359003;4202.69230763;4205.12820506
4202.43589737;4634.61538545;3616.66666535;4172.69230756;3776.53846057;2794.48717643;229.99999153;-0.00000896;2499.35897068;4468.58974408;2664.87179154;4208.20512814;3711.92307582;4369.74359003;4205.51282045;4204.99999993
4201.28205122;4634.35897520;3618.07692176;4141.92307672;3744.87179383;2823.33333035;229.99999153;-0.00000896;2501.92307324;4499.87179543;2762.17948406;4234.74358975;3781.41025544;4370.38461567;4205.89743583;4204.99999993
4173.20512807;4635.12820597;3647.94871670;4139.10256390;3745.64102460;2764.10256098;229.99999153;-0.00000896;2531.02563742;4504.48718005;2764.99999688;4206.66666660;3777.94871698;4367.82051310;4206.28205122;4172.17948704
4173.58974345;4631.92307776;3744.74358871;4138.20512800;3809.74358884;2760.76922765;229.99999153;-0.00000896;2527.43589383;4597.05128282;2829.10256112;4208.97435891;3814.87179397;4368.33333362;4208.07692301;4172.17948704
4174.87179474;4629.23077007;3746.41025537;4138.71794851;3877.69230693;2761.53845842;229.99999153;-0.00000896;2534.48717588;4602.56410333;2724.10256091;4205.76923070;3714.61538351;4368.20512849;4207.30769224;4172.17948704
4173.46153833;4601.41025718;3711.92307582;4135.64102544;3780.89743493;2729.99999681;229.99999153;-0.00000896;2598.58974012;4633.07692391;2861.28204837;4208.97435891;3814.61538372;4367.69230797;4207.69230763;4172.17948704
4169.35897422;4594.87179564;3809.23076833;4108.33333306;3842.43589661;2696.15384289;229.99999153;-0.00000896;2626.15384275;4693.58974457;2859.87179196;4206.92307686;3847.05128122;4369.48717977;4235.51282052;4172.17948704
4142.43589723;4563.07692378;3713.20512710;4108.46153819;3780.89743493;2727.05127886;229.99999153;-0.00000896;2598.07691961;4729.10256515;2823.97435599;4206.53846147;3749.61538358;4367.94871823;4208.58974352;4139.35897415
4142.69230749;4532.56410319;3676.79487062;4135.76923056;3682.94871677;2760.51281739;229.99999153;-0.00000896;2594.23076576;4701.28205226;2790.38461233;4208.20512814;3678.20512703;4367.82051310;4209.10256404;4139.35897415
4141.02564082;4503.84615441;3775.38461442;4109.87179460;3781.92307595;2761.92307380;8308.20513683;-0.00000896;2597.05127858;4699.10256508;2859.23076632;4206.79487173;3683.58974241;4366.53846182;4233.97435898;4139.35897415
4139.87179467;4501.79487235;3646.02563978;4106.92307665;3774.99999903;2796.53845848;8239.23077771;-0.00000896;2630.12820173;4693.97435995;2889.74358690;4207.30769224;3774.74358877;4367.43589772;4235.00000000;4139.35897415
4136.66666646;4501.02564159;3872.82051206;4104.10256383;3939.99999938;2790.38461233;229.99999153;-0.00000896;2658.97435564;4699.87179585;2991.79486916;4206.02564096;3906.28205059;4366.41025669;4234.87179488;4139.35897415
4108.84615357;4498.84615441;3942.05128143;4103.84615357;3939.99999938;2731.66666347;8239.23077771;-0.00000896;2664.74358641;4700.00000098;3023.97435641;4234.10256411;3912.69230700;4366.92307720;4237.43589744;4106.53846126
4107.69230742;4498.46153902;3742.43589640;4105.76923050;3716.02563992;2764.10256098;-0.00000896;-0.00000896;2663.84615051;4733.97436002;2923.20512543;4234.35897436;3749.48717845;4366.53846182;4235.25641026;4106.53846126
4104.48717921;4497.94871851;3776.66666570;4107.17948691;3777.94871698;2794.23076618;-0.00000896;-0.00000896;2660.64102231;4793.58974477;2928.71794594;4206.66666660;3873.97435821;4367.56410285;4235.12820513;4106.53846126
4076.92307658;4496.92307748;4037.05128164;4103.97435870;3978.07692252;2791.15384310;-0.00000896;-0.00000896;2627.17948378;4797.82051401;3220.51281836;4207.69230763;4103.97435870;4366.79487208;4236.79487180;4073.71794837
4075.12820478;4498.71794928;3971.79487124;4077.56410222;3874.99999924;2791.79486874;-0.00000896;-0.00000896;2593.33332986;4827.43589869;2992.82051018;4206.92307686;4037.05128164;4366.15384644;4237.30769231;4073.71794837
4076.66666632;4498.33333389;4073.46153812;4073.20512786;3906.92307623;2762.82050970;-0.00000896;-0.00000896;2596.53845807;4828.58974484;3020.76922820;4207.05128199;3972.69230714;4339.35897457;4237.82051282;4073.71794837
4076.15384581;4498.20512876;4006.53846106;4042.56410215;3907.69230700;2794.10256105;-0.00000896;-0.00000896;2659.23076590;4857.82051414;3019.61538205;4204.23076917;4076.02564068;4340.12820534;4238.33333334;4073.58974325
4074.61538427;4499.48718005;4204.10256404;4038.84615343;4071.15384581;2757.30768918;-0.00000896;-0.00000896;2666.02563769;4859.35897568;3187.43589522;4207.94871788;4208.20512814;4365.64102592;4238.07692308;4073.58974325
4073.58974325;4498.20512876;4235.51282052;4037.69230728;4008.58974311;2760.51281739;-0.00000896;-0.00000896;2691.53845828;4894.61538601;3319.61538267;4207.43589737;4239.10256411;4366.53846182;4238.71794872;4073.58974325
4073.20512786;4500.00000056;4170.25641012;4039.99999959;4070.12820478;2789.99999695;-0.00000896;-0.00000896;2695.51281725;4898.07692447;3125.64102328;4207.43589737;4136.28205108;4365.76923105;4239.23076923;4073.58974325
4071.15384581;4501.02564159;4071.53846119;4038.20512779;3876.53846078;2797.82050977;-0.00000896;-0.00000896;2699.10256084;4928.07692454;3282.69230568;4208.97435891;4039.74358933;4340.25641047;4240.00000000;4073.58974325
4044.61538420;4529.74359037;4107.56410229;4010.38461490;4039.74358933;2823.46153548;-0.00000896;-0.00000896;2730.12820194;4925.76923223;3219.74358759;4204.61538455;4076.02564068;4338.71794893;4240.00000000;4040.76923036
4042.82051241;4532.05128268;3978.97435842;4008.33333285;3913.33333264;2759.74358662;-0.00000896;-0.00000896;2757.30768918;4992.43589904;3218.58974144;4205.51282045;4008.33333285;4338.46153867;4241.15384616;4040.76923036
4039.87179446;4531.28205191;4039.61538420;4005.89743541;3976.53846099;2694.99999674;-0.00000896;-0.00000896;2757.82050970;5026.79487347;3123.97435662;4205.38461532;3942.56410194;4337.69230790;4241.92307693;4040.76923036
4037.30769189;4502.17948774;3745.51281947;3977.56410201;3649.99999875;2661.92307359;-0.00000896;-0.00000896;2726.66666347;5153.46154041;3052.82051032;4205.51282045;3677.94871677;4338.07692329;4241.92307693;4040.76923036
4010.89743541;4496.79487235;4038.20512779;3974.87179432;3909.87179418;2661.41025308;-0.00000896;-0.00000896;2697.17948392;5160.76923272;3090.38461296;4207.30769224;3939.87179425;4337.69230790;4240.51282052;4007.94871747
4039.74358933;4465.00000049;3946.28205066;3945.12820451;3873.84615309;2694.35897110;-0.00000896;-0.00000896;2731.02563783;5158.71795067;3287.43589542;4204.74358968;3971.66666611;4336.28205149;4268.33333341;4040.76923036
4042.43589702;4434.10256452;4041.53846113;3938.71794810;3908.97435828;2730.89743270;-0.00000896;-0.00000896;2795.76922772;5156.79487374;3314.87179293;4207.82051275;3913.71794803;4336.02564124;4268.33333341;4040.76923036
4043.33333292;4431.92307734;3976.15384560;3911.53846085;3971.66666611;2729.74358655;-0.00000896;-0.00000896;2860.76922785;5154.23077118;3250.64102356;4204.61538455;3876.28205052;4336.15384637;4268.58974366;4040.64102523
4043.97435856;4431.15384657;3972.43589688;3909.23076854;3913.58974290;2694.35897110;-0.00000896;-0.00000896;2921.79486902;5159.87179682;3221.41025426;4206.15384609;3942.17948656;4336.15384637;4268.84615392;4040.64102523
4043.97435856;4403.97435933;3841.53846071;3911.41025572;3813.46153756;2660.51281718;-0.00000896;-0.00000896;2955.89743319;5193.46154048;3220.12820298;4207.82051275;3808.07692218;4336.66666688;4268.71794879;4040.64102523
4043.58974318;4400.89743625;3912.82051213;3913.33333264;3912.56410187;2666.02563769;-0.00000896;-0.00000896;2960.38461268;5222.17948927;3316.53845960;4205.38461532;3943.33333271;4332.94871816;4269.87179495;4040.64102523
4044.74358933;4398.46153881;3944.74358912;3913.07692239;3906.66666598;2695.12820187;-0.00000896;-0.00000896;2954.10256140;5252.82051498;3481.92307533;4206.66666660;4009.35897388;4333.07692329;4270.25641033;4040.64102523
4070.76923043;4373.07692336;3814.23076833;3912.94871726;3813.46153756;2691.79486853;-0.00000896;-0.00000896;2959.35897165;5254.10256626;3252.30769023;4207.94871788;3748.46153742;4307.56410271;4269.87179495;4073.46153812
4072.82051248;4370.25641054;3874.87179411;3911.79487110;3879.48717873;2663.71794539;-0.00000896;-0.00000896;3020.38461282;5255.89743806;3253.33333125;4206.79487173;3844.87179404;4306.79487194;4270.76923084;4073.46153812
4075.25640991;4368.20512849;3841.28205045;3909.23076854;3842.56410173;2664.48717616;229.99999153;-0.00000896;3091.53845911;5255.89743806;3257.17948510;4207.69230763;3807.43589654;4306.53846168;4270.89743597;4073.46153812
4074.10256376;4365.64102592;3974.23076868;3911.41025572;3912.94871726;2632.30768891;229.99999153;-0.00000896;3153.97435669;5286.28205351;3221.53845939;4206.41025634;3742.17948614;4333.20512842;4271.02564110;4073.46153812
4071.79487145;4338.46153867;4008.58974311;3913.71794803;3977.82051227;2632.69230429;229.99999153;-0.00000896;3187.56410034;5288.33333556;3353.58974172;4234.10256411;4008.07692259;4305.76923091;4270.89743597;4073.46153812
4070.25640991;4336.79487201;3748.07692204;3943.97435835;3676.28205010;2662.30768898;229.99999153;-0.00000896;3189.87179265;5289.61538684;3183.58974137;4207.69230763;3647.56410132;4306.02564117;4271.66666674;4073.58974325
4041.41025600;4336.15384637;3676.79487062;3972.43589688;3647.43589619;2632.69230429;101.79486304;-0.00000896;3221.79486964;5287.56410479;3020.12820256;4205.51282045;3611.02563971;4305.38461553;4272.17948725;4040.76923036
4011.53846106;4335.89743611;3808.71794782;3946.28205066;3679.10256293;2599.10256063;8272.17949573;-0.00000896;3289.87179286;5319.48718178;3088.20512578;4208.97435891;3617.94871663;4303.33333348;4272.94871802;4007.94871747
3978.71794817;4333.46153867;3776.02564006;3975.89743535;3675.89743472;2597.94871448;229.99999153;-0.00000896;3350.12820326;5350.51282288;3021.41025384;4207.05128199;3615.38461407;4303.46153860;4271.28205136;3975.12820458
3973.58974304;4333.07692329;3847.82051199;4009.61538413;3747.94871691;2658.97435564;8272.17949573;-0.00000896;3285.51281850;5350.00000237;3154.87179258;4208.71794865;3874.23076847;4302.30769245;4273.46153853;3975.12820458
3974.61538406;4337.30769252;4075.12820478;4042.56410215;3877.05128129;2725.12820194;229.99999153;-0.00000896;3218.46153631;5321.66666896;3221.41025426;4208.58974352;3911.79487110;4302.17948732;4273.33333341;3975.12820458
3974.99999945;4368.71794900;3910.12820444;4039.48717907;3682.82051164;2694.48717623;8272.17949573;-0.00000896;3218.07692093;5354.74359211;3122.43589508;4207.17948711;3807.94871705;4301.15384630;4273.46153853;3975.12820458
3977.05128150;4370.12820541;4102.56410229;4008.58974311;3777.05128108;2566.28204774;229.99999153;-0.00000896;3254.99999792;5418.33333584;3191.28204906;4208.20512814;3844.48717866;4301.02564117;4301.53846168;3975.12820458
4004.87179439;4367.43589772;4172.94871781;4005.51282003;3939.87179425;2534.35897075;8272.17949573;-0.00000896;3285.76922876;5483.84615649;3316.15384421;4206.66666660;4038.58974318;4300.64102578;4274.23076930;4007.94871747
4008.46153798;4338.71794893;4138.33333313;4008.20512772;3909.48717880;2593.97435550;229.99999153;-0.00000896;3256.53845946;5488.46154111;3187.94871573;4207.05128199;3974.87179432;4301.79487194;4274.74358982;4007.94871747
4011.15384567;4335.38461560;3977.30769176;4004.74358926;3743.46153742;2567.05127851;8272.17949573;-0.00000896;3282.56410055;5517.56410528;3321.66666472;4205.89743583;3976.15384560;4300.38461553;4274.74358982;4007.94871747
4040.64102523;4332.43589765;4339.10256431;3974.48717894;4042.05128164;2597.17948371;229.99999153;-0.00000896;3287.94871594;5517.05128477;3382.17948538;4204.61538455;4143.33333313;4300.00000014;4300.64102578;4040.76923036
4070.12820478;4304.74358989;4267.30769238;3972.56410201;4038.07692266;2597.69230422;8272.17949573;-0.00000896;3320.38461344;5515.64102835;3480.12820353;4233.84615385;4075.76923043;4273.58974366;4300.38461553;4073.58974325
4075.25640991;4303.07692322;5253.71795088;3945.12820451;4865.38461671;2599.74358627;229.99999153;-0.00000896;3416.28204955;5515.76923348;4465.00000049;4205.89743583;5120.89743778;4272.94871802;4300.51282066;4073.58974325
4077.43589709;4302.30769245;5157.43589939;3946.41025579;4862.30769363;2594.61538114;8272.17949573;-0.00000896;3486.41025482;5487.82051546;4367.56410285;4206.53846147;5059.74359148;4273.33333341;4300.51282066;4073.58974325
4103.20512793;4304.10256425;5155.25641221;3976.28205073;4924.10256557;2631.15384275;229.99999153;-0.00000896;3485.12820353;5514.74359246;4436.02564145;4207.17948711;4995.64102724;4272.43589751;4300.25641040;4106.41025614
4105.51282024;4306.15384630;5093.46154027;4006.66666618;4926.79487326;2598.71794525;8272.17949573;-0.00000896;3484.35897276;5521.79487451;4336.53846175;4207.30769224;5022.56410424;4271.92307700;4303.33333348;4106.41025614
4108.71794844;4303.84615399;4962.17948871;4008.58974311;4799.35897554;2593.07691961;229.99999153;-0.00000896;3548.07692162;5550.38461817;4266.92307700;4207.94871788;4832.30769356;4270.76923084;4300.89743604;4106.41025614
4108.33333306;4302.94871809;5094.87179668;4011.41025593;4897.05128344;2592.94871448;8272.17949573;-0.00000896;3579.10256272;5553.84615663;4535.64102627;4208.07692301;5058.97436072;4270.38461546;4301.53846168;4106.41025614
4109.10256383;4300.51282066;4962.82051435;4038.84615343;4890.25641165;2593.20512473;229.99999153;-0.00000896;3581.79487041;5551.79487458;4305.25641040;4208.46153840;4792.69230888;4272.69230777;4301.53846168;4106.41025614
4108.58974332;4274.10256418;4734.10256515;4043.07692266;4699.61538559;2593.07691961;8272.17949573;-0.00000896;3612.82051150;5585.76923362;4206.66666660;4235.00000000;4696.02564200;4270.38461546;4302.56410271;4106.41025614
4106.15384588;4273.07692315;4368.33333362;4069.99999966;4336.28205149;2594.74358627;229.99999153;-0.00000896;3646.79487055;5587.05128490;3873.58974283;4208.58974352;4239.23076923;4271.02564110;4301.53846168;4106.53846126
4103.58974332;4271.53846161;4438.20512863;4073.84615350;4468.97435946;2566.41025287;8272.17949573;-0.00000896;3648.71794747;5613.07692600;3972.94871740;4205.51282045;4303.58974373;4268.71794879;4301.92307707;4106.53846126
4076.15384581;4269.61538469;4104.74358947;4105.76923050;4235.51282052;2566.15384261;229.99999153;-0.00000896;3618.33333202;5615.51282344;3681.53846036;4206.28205122;4072.69230735;4269.87179495;4306.28205142;4073.71794837
4103.07692280;4266.79487187;4236.66666667;4109.99999973;4273.58974366;2566.15384261;8272.17949573;-0.00000896;3645.76922952;5645.89743889;3645.76922952;4208.07692301;3941.41025579;4270.00000007;4302.56410271;4106.53846126
4077.56410222;4239.23076923;4202.43589737;4137.94871774;4366.02564131;2596.15384268;229.99999153;-0.00000896;3649.99999875;5646.66666966;3811.28205038;4207.05128199;4070.25640991;4268.46153853;4302.05128219;4073.71794837
4104.74358947;4236.02564103;4204.10256404;4138.97435877;4368.33333362;2599.10256063;8272.17949573;-0.00000896;3649.35897311;5645.89743889;3780.38461442;4234.48717949;4076.15384581;4268.20512828;4302.43589758;4106.53846126
4105.64102537;4234.23076923;4334.35897457;4143.46153826;4501.66666723;2594.23076576;229.99999153;-0.00000896;3676.15384498;5619.10256702;3945.25640963;4208.20512814;4239.48717949;4268.71794879;4302.56410271;4106.53846126
4106.15384588;4207.05128199;4302.94871809;4171.53846140;4400.12820548;2560.38461184;8272.17949573;-0.00000896;3712.69230658;5649.10256709;3941.79487117;4208.84615378;4170.64102551;4267.30769238;4302.30769245;4106.53846126
4103.33333306;4201.53846147;4404.74359009;4174.87179474;4567.05128275;2527.17948357;229.99999153;-0.00000896;3748.84615281;5684.61538768;4069.87179453;4208.20512814;4365.76923105;4267.56410264;4303.33333348;4106.53846126
4074.74358940;4171.41025628;4437.82051324;4202.82051275;4563.97435967;2501.02563735;8341.15385484;-0.00000896;3777.56410160;5717.94872108;4044.99999959;4207.69230763;4302.56410271;4241.28205129;4302.56410271;4073.84615350
4042.56410215;4140.25641005;4236.53846154;4208.58974352;4471.15384664;2531.02563742;137.69229901;-0.00000896;3749.35897332;5744.87179807;3879.61538385;4206.79487173;4266.66666674;4268.71794879;4303.46153860;4041.02564061
4010.51282003;4108.33333306;4533.71794935;4233.97435898;4664.48718039;2498.20512453;8372.17949594;-0.00000896;3746.79487076;5746.28205448;3977.82051227;4208.97435891;4268.33333341;4268.58974366;4302.30769245;4008.20512772
3976.79487124;4073.58974325;4302.05128219;4204.74358968;4467.94871844;2497.94871427;229.99999153;-0.00000896;3716.15384505;5778.71795199;3940.25640963;4206.66666660;4202.69230763;4268.07692315;4301.53846168;3975.38461483
3944.23076861;4039.48717907;4432.05128247;4173.58974345;4596.53846231;2564.23076569;229.99999153;-0.00000896;3646.79487055;5718.58974672;4075.25640991;4234.23076923;4303.20512835;4267.56410264;4302.30769245;3942.43589681
3940.76923015;4011.66666618;4332.82051303;4137.82051262;4663.84615475;2628.46153506;229.99999153;-0.00000896;3579.23076784;5683.07692614;3905.64102495;4207.94871788;4142.43589723;4241.53846154;4302.69230784;3942.43589681
3941.66666605;4037.30769189;4365.51282079;4104.48717921;4796.02564221;2599.35897089;229.99999153;-0.00000896;3579.61538323;5648.97436197;3842.17948635;4206.28205122;4137.17948697;4239.61538462;4300.12820527;3942.43589681
3944.74358912;4037.82051241;4238.84615385;4042.17948677;4694.74359072;2593.33332986;-0.00000896;-0.00000896;3676.92307575;5585.12820798;3944.10256348;4209.10256404;4173.46153833;4240.00000000;4302.05128219;3942.30769169
3942.56410194;4040.25640984;4304.74358989;4010.38461490;4832.56410382;2594.87179140;-0.00000896;-0.00000896;3774.35897339;5546.92307971;3878.71794796;4236.53846154;4139.10256390;4239.74358975;4302.17948732;3942.30769169
3912.82051213;4044.35897395;4333.84615406;4007.05128157;4764.10256522;2567.17948364;-0.00000896;-0.00000896;3841.66666584;5519.23077194;3939.74358912;4207.82051275;4140.25641005;4239.10256411;4302.05128219;3909.48717880
3905.89743521;4075.38461504;4267.56410264;4006.28205080;4695.64102662;2533.07691947;-0.00000896;-0.00000896;3911.28205059;5520.89743861;3973.33333278;4235.12820513;4236.41025641;4238.84615385;4300.76923091;3909.48717880
3876.15384539;4077.56410222;4335.00000021;4010.64102516;4799.35897554;2468.71794497;-0.00000896;-0.00000896;4004.87179439;5582.30769516;3905.64102495;4208.84615378;4241.79487180;4238.46153847;4301.79487194;3876.66666591
3815.25640936;4077.43589709;4207.56410250;4011.79487131;4666.66666757;2429.61538080;-0.00000896;-0.00000896;4044.23076882;5613.46154138;3909.87179418;4234.87179488;4206.02564096;4235.64102564;4301.92307707;3811.02564013
3777.82051185;4072.82051248;4302.69230784;4039.23076882;4700.25641123;2399.35897047;-0.00000896;-0.00000896;4076.28205094;5651.41025940;3943.33333271;4235.12820513;4172.82051269;4235.38461539;4302.05128219;3778.20512724
3716.53846043;4041.41025600;4498.97435953;4043.58974318;4930.25641172;2433.33332952;-0.00000896;-0.00000896;4103.46153819;5652.17949017;4175.89743576;4238.33333334;4499.23076979;4208.71794865;4302.05128219;3712.56410146
3679.35897318;4037.17948677;5122.94871983;4040.38461497;5482.69231034;2434.48717567;-0.00000896;-0.00000896;4074.48717914;5652.56410556;4733.33333438;4235.76923077;5055.12820687;4234.61538462;4302.94871809;3679.74358857
3645.89743465;4008.71794824;4405.38461574;4005.51282003;4862.82051414;2434.74358593;-0.00000896;-0.00000896;4071.15384581;5651.79487479;4006.02564054;4237.05128206;4367.05128233;4208.33333327;4301.66666681;3646.92307568
3643.07692183;4004.35897388;3972.17948663;3974.35897381;4470.89743639;2428.71794490;-0.00000896;-0.00000896;4077.69230735;5616.92307985;3775.51281954;4235.89743590;4038.33333292;4208.20512814;4301.41025655;3646.92307568
3616.66666535;3976.41025586;3878.33333257;3971.79487124;4434.10256452;2369.87179091;-0.00000896;-0.00000896;4143.46153826;5613.71795164;3577.43589605;4239.23076923;3976.02564047;4206.92307686;4301.28205142;3614.10256279
3615.89743458;3945.89743528;4103.07692280;3973.58974304;4501.15384671;2332.69230367;-0.00000896;-0.00000896;4207.30769224;5617.94872087;3680.12820395;4236.92307693;3941.79487117;4204.23076917;4301.28205142;3614.10256279
3616.28204997;3939.61538399;4070.89743555;3973.84615329;4437.30769273;2303.33332924;-0.00000896;-0.00000896;4238.20512821;5612.69231061;3612.17948586;4237.05128206;3873.20512744;4201.79487173;4300.64102578;3614.10256279
3644.10256286;3906.79487110;3977.94871740;3974.87179432;4398.84615420;2303.20512411;-0.00000896;-0.00000896;4267.69230777;5585.89743875;3612.94871663;4240.38461539;3873.84615309;4203.46153840;4300.00000014;3646.92307568
3649.48717824;3874.74358898;5258.07692523;3975.51281996;5617.94872087;2333.07691905;-0.00000896;-0.00000896;4274.10256418;5582.30769516;4766.28205240;4239.10256411;5284.48718171;4175.64102551;4274.61538469;3646.92307568
3651.02563978;3846.41025558;5911.92308047;3975.25640970;6172.56410667;2335.38461136;-0.00000896;-0.00000896;4306.02564117;5516.41025912;5713.97436211;4241.92307693;6044.74359357;4174.99999986;4274.10256418;3646.92307568
3680.51281934;3841.02564020;6040.38461921;3973.84615329;6274.10256841;2335.64102161;-0.00000896;-0.00000896;4366.28205156;5454.23077181;5715.12820826;4241.41025641;6104.87179884;4174.35897422;4273.71794879;3679.74358857
3681.79487062;3812.30769141;6006.92308068;3973.07692252;6079.74359364;2331.79486777;-0.00000896;-0.00000896;4405.00000035;5448.71795129;5711.53846467;4240.38461539;5947.05128567;4172.56410243;4273.07692315;3679.74358857
3709.35897325;3808.84615295;6072.17949107;3971.53846099;6339.10256855;2303.71794462;-0.00000896;-0.00000896;4465.89743639;5420.12820763;5745.64102884;4240.76923077;6076.15385005;4173.97435884;4272.56410264;3712.56410146
3714.99999889;3780.25640929;6072.94872184;3972.82051227;6173.97436308;2330.64102161;-0.00000896;-0.00000896;4500.38461594;5385.38461782;5778.33333660;4241.92307693;6039.48718331;4170.38461525;4271.66666674;3712.56410146
3744.23076819;3776.92307595;6011.02564478;3977.94871740;6268.97436329;2299.10256001;-0.00000896;-0.00000896;4536.02564165;5355.89743826;5747.56410576;4241.66666667;6110.00000396;4171.02564089;4270.25641033;3745.38461435
3749.23076819;3747.94871691;6104.87179884;4006.15384567;6305.51282489;2269.61538045;-0.00000896;-0.00000896;4595.12820590;5349.87179724;5874.87179835;4267.69230777;6173.46154257;4169.35897422;4269.74358982;3745.38461435
3778.20512724;3744.87179383;6176.92308103;4011.02564054;6402.56410715;2237.94871371;-0.00000896;-0.00000896;4630.25641109;5285.64102787;5809.48718283;4270.25641033;6209.87179904;4168.97435884;4268.97435905;3778.20512724
3781.92307595;3716.53846043;6205.64102981;4040.76923036;6404.35897895;2232.43589320;229.99999153;-0.00000896;4663.07692398;5222.94872004;6962.43590321;4269.87179495;6269.10256841;4141.79487159;4268.33333341;3778.20512724
3809.23076833;3714.87179376;6177.43590154;4069.99999966;6373.84615837;2234.35897012;8370.89744466;-0.00000896;4693.46153944;5157.94871990;6662.56410771;4266.79487187;6205.64102981;4141.53846133;4268.71794879;3811.15384525
3814.23076833;3714.23076812;6171.66667077;4075.51282017;6371.28205580;2239.87179064;138.07691439;-0.00000896;4667.17948809;5127.94871983;6667.69231284;4269.74358982;6269.48718380;4140.25641005;4266.79487187;3811.15384525
3842.17948635;3713.07692197;6076.15385005;4077.17948684;6237.56410681;2235.89743166;8277.82052137;-0.00000896;4694.35897534;5090.76923258;6532.30769718;4270.25641033;6111.53846550;4140.64102544;4239.35897436;3843.97435814
3847.94871712;3712.69230658;6046.66667049;4077.05128171;6302.17949156;2239.48717525;229.99999153;-0.00000896;4726.41025746;5056.15384789;6471.53846627;4270.64102571;6174.61538872;4140.64102544;4240.38461539;3843.97435814
3876.41025565;3712.56410146;6014.23077299;4104.35897408;6238.07692732;2238.97435474;229.99999153;-0.00000896;4758.97436009;5023.71795039;6436.92308158;4271.53846161;6046.15384998;4138.71794851;4238.07692308;3876.79487103
3879.74358898;3711.02563992;5944.87179849;4103.58974332;6110.38461935;2173.20512383;229.99999153;-0.00000896;4766.02564214;4961.41025794;6341.02564548;4271.02564110;6013.07692683;4139.23076903;4238.58974359;3876.79487103
3906.02564033;3683.46153728;5975.00000369;4106.15384588;6175.51282462;2167.94871357;229.99999153;-0.00000896;4796.15384734;4897.05128344;6372.69231221;4271.41025648;6074.10256800;4109.99999973;4237.30769231;3909.61538392
3909.61538392;3681.02563985;5876.15384963;4109.74358947;5980.00000369;2141.02563658;229.99999153;-0.00000896;4828.97436023;4858.58974491;6203.20513238;4273.33333341;5978.20513189;4137.30769210;4237.17948718;3909.61538392
3909.61538392;3678.58974241;5946.28205490;4138.20512800;6039.61538844;2136.66666222;229.99999153;-0.00000896;4897.17948857;4796.28205247;6472.43590216;4301.28205142;5948.07692669;4138.20512800;4235.00000000;3909.61538392
3880.76923001;3676.28205010;5750.25641346;4142.56410236;5944.87179849;2106.79486728;229.99999153;-0.00000896;4961.66666820;4759.74359086;6828.71795421;4273.58974366;5912.05128560;4137.30769210;4234.48717949;3876.79487103
3875.12820437;3649.61538337;5943.20513182;4170.25641012;6038.97436280;2138.58973915;229.99999153;-0.00000896;4956.41025794;4732.17948823;6893.71795435;4274.35897443;5947.56410618;4136.41025621;4208.46153840;3876.79487103
3847.56410173;3647.05128080;5910.25641380;4174.74358961;6107.43590140;2138.20512376;229.99999153;-0.00000896;4928.20512967;4693.58974457;6931.92308262;4300.25641040;6075.00000390;4109.61538434;4208.97435891;3843.97435814
3846.02564020;3645.64102439;5877.17949066;4204.35897429;6046.41026024;2140.89743145;229.99999153;-0.00000896;4956.79487333;4631.15384699;6795.38462081;4274.61538469;6077.69231159;4135.51282031;4206.02564096;3844.10256327
3844.87179404;3646.02563978;5941.66667028;4234.35897436;6109.23077320;2138.33332889;229.99999153;-0.00000896;4991.41025801;4595.76923154;6831.15385165;4299.61538476;6072.56410646;4135.89743569;4205.25641019;3844.10256327
3814.87179397;3646.66666542;5815.00000334;4237.17948718;5975.12820881;2167.17948281;229.99999153;-0.00000896;4961.66666820;4532.82051345;6697.82051804;4299.74358989;5880.00000348;4109.87179460;4203.97435891;3811.28205038
3812.56410166;3648.84615260;5747.56410576;4239.48717949;6010.00000376;2171.02563665;229.99999153;-0.00000896;4897.69230909;4499.61538518;6665.64103079;4299.48717963;5882.94872143;4109.87179460;4202.82051275;3811.28205038
3811.02564013;3651.02563978;5650.51282350;4238.71794872;5882.56410604;2136.79486735;229.99999153;-0.00000896;4891.28205268;4433.58974401;6469.10256883;4301.53846168;5816.15384949;4109.35897408;4201.28205122;3811.28205038
3809.48717859;3649.87179362;5743.71795192;4238.84615385;5941.28205490;2101.41025190;229.99999153;-0.00000896;4895.25641165;4399.74359009;6598.20513321;4299.61538476;5850.12820854;4110.51282024;4175.12820499;3811.28205038
3780.89743493;3647.43589619;5650.38461838;4240.89743590;5783.33333660;2101.28204677;229.99999153;-0.00000896;4898.33333473;4304.35897450;6471.41026114;4299.48717963;5717.30769544;4109.48717921;4175.51282038;3778.46153749
3777.94871698;3645.25640901;5549.23077201;4239.87179488;5777.82051609;2136.53845710;229.99999153;-0.00000896;4894.61538601;4240.00000000;6269.35897867;4302.43589758;5616.79487472;4109.74358947;4173.33333320;3778.46153749
3775.38461442;3647.56410132;5519.74359246;4239.87179488;5716.02564416;2169.61538024;229.99999153;-0.00000896;4831.02564228;4174.74358961;6340.76923522;4303.58974373;5712.56410569;4109.99999973;4172.30769217;3778.46153749
3747.17948614;3676.28205010;5481.15384880;4234.74358975;5749.74359294;2199.23076493;229.99999153;-0.00000896;4825.89743715;4139.48717928;6142.82051685;4302.94871809;5552.30769509;4108.33333306;4170.51282038;3745.64102460
3746.41025537;3682.30769113;5549.10256689;4202.30769224;5717.82051595;2203.33332903;229.99999153;-0.00000896;4795.12820631;4043.58974318;6237.56410681;4303.71794886;5685.25641332;4109.23076896;4169.87179474;3745.64102460
3743.84615281;3713.46153735;5417.05128456;4168.58974345;5711.66666980;2200.51281621;229.99999153;-0.00000896;4795.89743708;3976.41025586;6073.20513210;4303.07692322;5453.07692565;4109.87179460;4168.20512807;3745.51281947
3744.99999896;3743.84615281;5322.05128435;4138.07692287;5549.35897714;2138.46153402;229.99999153;-0.00000896;4827.05128331;3912.56410187;5975.00000369;4303.84615399;5417.43589994;4108.84615357;4140.12820492;3745.51281947
3744.10256306;3746.53846050;5259.23077139;4110.51282024;5582.05128490;2135.12820068;229.99999153;-0.00000896;4858.58974491;3876.41025565;5973.97436266;4303.58974373;5422.05128456;4106.92307665;4141.15384595;3745.51281947
3746.02563999;3775.64102467;5186.28205330;4109.10256383;5423.20513071;2168.71794434;229.99999153;-0.00000896;4832.43589869;3846.28205045;5780.76923404;4305.00000014;5320.00000230;4109.10256383;4139.87179467;3745.51281947
3748.20512717;3780.64102467;5226.53846363;4109.87179460;5258.97436113;2201.79486749;229.99999153;-0.00000896;4861.66666799;3777.30769134;5910.12820868;4301.41025655;5353.58974596;4108.07692280;4138.97435877;3745.51281947
3776.53846057;3814.99999910;5121.92307880;4137.30769210;5088.84615566;2173.46153409;229.99999153;-0.00000896;4923.33333480;3777.17948621;5712.05128518;4301.02564117;5286.53846377;4108.46153819;4138.84615364;3778.33333236
3782.05128108;3844.74358891;5122.69230957;4141.02564082;5120.89743778;2171.79486742;229.99999153;-0.00000896;4925.12820659;3746.41025537;5648.97436197;4303.20512835;5193.20513022;4107.43589716;4137.17948697;3778.33333236
3810.76922987;3874.74358898;4995.38461699;4169.35897422;5089.10256591;2170.38461101;229.99999153;-0.00000896;4890.89743729;3748.07692204;5581.15384901;4304.10256425;5188.33333535;4106.79487152;4135.38461518;3811.15384525
3841.41025558;3873.97435821;5121.41025829;4171.53846140;5093.07692489;2139.61538017;229.99999153;-0.00000896;4825.76923202;3715.38461428;5552.05128483;4303.58974373;5156.79487374;4109.10256383;4108.97435870;3843.97435814
3875.89743514;3847.69230686;5060.64102738;4172.17948704;5155.64102759;2102.82050831;229.99999153;-0.00000896;4857.56410389;3710.38461428;5517.43590015;4300.89743604;5192.69230971;4108.20512793;4109.74358947;3876.79487103
3908.84615316;3841.53846071;5025.64102731;4202.05128199;5123.97436085;2074.48717490;229.99999153;-0.00000896;4897.56410396;3678.20512703;5453.46154104;4301.66666681;5156.92307887;4106.92307665;4109.48717921;3909.74358905
3911.53846085;3813.46153756;5218.84615593;4208.97435891;5191.92307894;2140.38461094;229.99999153;-0.00000896;4926.41025787;3651.02563978;5551.15384894;4300.51282066;5223.20513029;4108.46153819;4107.82051255;3909.74358905
3939.48717887;3811.79487090;5123.07692496;4239.10256411;5221.79487388;2232.43589320;229.99999153;-0.00000896;4862.17948850;3612.82051150;5485.51282316;4302.17948732;5218.84615593;4107.30769203;4107.69230742;3942.56410194
3942.17948656;3811.15384525;5253.46154062;4236.66666667;5257.17948934;2235.76922653;8238.07693156;-0.00000896;4859.35897568;3611.41025509;5483.84615649;4302.82051296;5255.51282267;4108.07692280;4106.66666639;3942.56410194
3946.28205066;3809.48717859;5088.33333514;4235.00000000;5189.61538663;2235.12820089;8305.89744452;-0.00000896;4863.84615517;3579.10256272;5390.64102808;4301.53846168;5251.41025857;4107.30769203;4104.87179460;3942.56410194
3973.71794817;3809.23076833;5123.46154034;4236.66666667;5160.51282246;2233.71794448;229.99999153;-0.00000896;4863.84615517;3517.56410104;5385.38461782;4302.30769245;5223.58974568;4107.43589716;4104.61538434;3975.38461483
3976.92307637;3780.25640929;5192.43589945;4239.10256411;5320.51282281;2205.38461108;8305.89744452;-0.00000896;4927.43589890;3486.28204969;5485.89743854;4301.79487194;5291.28205351;4109.48717921;4103.71794844;3975.38461483
3975.64102509;3778.07692211;5193.20513022;4268.71794879;5253.46154062;2236.15384192;-0.00000896;-0.00000896;4926.53846300;3482.05128046;5322.56410486;4299.87179501;5185.76923279;4107.43589716;4103.07692280;3975.38461483
3973.58974304;3775.64102467;5284.61538684;4301.02564117;5324.74359204;2269.35897019;-0.00000896;-0.00000896;4923.97436044;3450.38461372;5350.38461775;4303.58974373;5323.07692537;4109.10256383;4077.05128171;3975.38461483
3971.41025586;3774.48717852;5124.61538650;4305.25641040;5160.00000195;2331.41025238;-0.00000896;-0.00000896;4894.61538601;3413.33333160;5226.02564311;4301.15384630;5188.07692510;4107.94871767;4075.64102530;3975.38461483
3971.41025586;3776.28205031;5121.41025829;4307.17948732;5224.87179696;2396.02563714;-0.00000896;-0.00000896;4860.12820645;3353.71794685;5221.15384824;4300.25641040;5256.15384831;4109.48717921;4074.87179453;3975.38461483
3973.07692252;3779.48717852;5155.12820708;4307.30769245;5223.20513029;2365.12820117;-0.00000896;-0.00000896;4857.43589876;3290.12820312;5225.64102773;4302.43589758;5225.64102773;4109.61538434;4074.10256376;3975.38461483
3974.35897381;3780.12820416;5152.82051477;4334.35897457;5252.17948934;2368.46153450;-0.00000896;-0.00000896;4859.35897568;3285.38461337;5188.07692510;4301.66666681;5189.74359176;4135.38461518;4073.46153812;3975.51281996
3976.15384560;3807.17948628;5153.97436092;4338.20512842;5253.71795088;2396.79486791;-0.00000896;-0.00000896;4798.46153965;3249.99999792;5187.17948920;4299.87179501;5257.17948934;4110.25640998;4073.20512786;3975.51281996
3975.76923022;3807.94871705;5125.00000188;4365.64102592;5256.15384831;2399.99999611;-0.00000896;-0.00000896;4826.66666792;3220.12820298;5061.15384789;4300.38461553;5095.25641207;4135.38461518;4072.05128171;3975.51281996
3973.20512765;3809.48717859;5023.84615552;4367.43589772;5223.97436106;2431.02563721;-0.00000896;-0.00000896;4797.82051401;3158.71794643;5054.35897610;4300.00000014;5127.43589932;4110.25640998;4070.89743555;3975.51281996
3944.35897374;3812.82051192;4961.79487333;4366.92307720;5125.25641214;2432.82050900;-0.00000896;-0.00000896;4794.35897554;3123.58974123;4956.41025794;4300.00000014;4992.94871955;4136.41025621;4070.38461504;3942.69230707
3940.12820451;3841.92307609;4963.33333487;4340.00000021;5126.02564291;2465.64102189;-0.00000896;-0.00000896;4793.84615503;3119.23076687;4825.51282177;4273.58974366;4957.82051435;4135.51282031;4044.48717907;3942.69230707
3911.41025572;3844.74358891;4926.02564249;4340.12820534;5156.66666862;2434.48717567;-0.00000896;-0.00000896;4766.79487291;3090.12820270;4762.17948830;4272.69230777;4923.20512967;4136.79487159;4043.20512779;3909.87179418
3906.53846085;3844.61538379;4762.30769342;4366.41025669;4994.23077083;2399.10256022;-0.00000896;-0.00000896;4766.92307804;3055.51281802;4628.20512904;4301.92307707;4760.64102676;4135.51282031;4042.82051241;3909.87179418
3876.15384539;3844.35897353;4792.56410375;4398.71794907;4894.87179627;2402.56409868;-0.00000896;-0.00000896;4729.61538566;3021.02563846;4600.51282128;4274.74358982;4631.53846238;4136.66666646;4041.53846113;3877.05128129
3874.99999924;3844.61538379;4398.20512856;4405.25641061;4693.97435995;2463.97435523;-0.00000896;-0.00000896;4696.02564200;2961.79486909;4172.56410243;4301.66666681;4365.89743618;4139.61538441;4041.79487138;3877.05128129
3876.41025565;3846.53846071;4567.30769301;4464.74359023;4792.43589862;2497.30768863;-0.00000896;-0.00000896;4664.61538552;2922.17948440;4271.66666674;4300.12820527;4468.58974408;4137.69230749;4041.92307651;3877.17948642
3877.17948642;3873.71794796;4368.84615413;4497.17948774;4567.94871865;2501.15384247;-0.00000896;-0.00000896;4632.17948802;2855.51281760;4236.02564103;4300.00000014;4338.97435919;4137.94871774;4039.74358933;3877.17948642
3880.64102488;3876.41025565;4268.58974366;4530.51282114;4600.00000077;2531.15384254;-0.00000896;-0.00000896;4535.00000063;2795.38461233;3913.20512751;4299.48717963;4141.53846133;4138.97435877;4039.10256369;3877.17948642
3911.79487110;3880.76923001;3218.20512605;4536.66666730;3581.15384477;2561.53845800;-0.00000896;-0.00000896;4471.15384664;2793.20512515;2929.10256133;4300.38461553;2990.25640762;4143.07692287;4039.35897395;3909.99999931
3938.71794810;3908.33333264;3287.30769030;4566.53846224;3680.76922959;2533.58973998;-0.00000896;-0.00000896;4498.07692364;2731.28204809;3024.74358718;4272.82051289;3125.76922841;4142.17948697;4037.94871754;3942.82051220
3941.66666605;3912.05128136;3318.33333139;4595.51282128;3617.94871663;2560.25640672;-0.00000896;-0.00000896;4497.82051338;2666.15384282;3089.48717706;4274.23076930;3185.76922855;4142.05128185;4038.20512779;3942.94871733
3941.92307630;3939.23076861;3419.99999827;4632.82051366;3807.30769141;2562.56409902;-0.00000896;-0.00000896;4500.64102620;2630.51281711;3021.02563846;4299.74358989;3186.53845932;4143.33333313;4037.30769189;3942.94871733
3941.41025579;3944.48717887;3347.82051095;4696.79487277;3709.87179376;2627.56409916;-0.00000896;-0.00000896;4464.87179536;2565.51281697;3124.23076687;4272.69230777;3189.61538240;4169.23076910;4012.17948670;3942.94871733
3941.79487117;3977.05128150;3255.51281843;4762.69230881;3711.15384505;2660.89743257;-0.00000896;-0.00000896;4432.94871837;2534.23076562;2921.15384338;4271.28205136;3087.69230526;4172.05128192;4011.53846106;3943.07692246
3913.58974290;4008.33333285;3387.56410076;4798.46153965;3775.25640929;2724.99999681;229.99999153;-0.00000896;4373.20512849;2500.51281683;3052.30768981;4273.33333341;3189.35897214;4172.30769217;4036.92307651;3910.25640957
3906.41025572;4041.53846113;3354.35897249;4799.74359093;3808.84615295;2828.33333035;229.99999153;-0.00000896;4305.38461553;2502.17948350;2991.02563839;4301.15384630;3156.28204899;4173.71794858;4011.02564054;3910.25640957
3875.12820437;4103.33333306;3648.07692183;4766.41025753;4044.48717907;2861.15384324;229.99999153;-0.00000896;4234.35897436;2533.20512460;3154.99999771;4273.58974366;3354.87179300;4175.64102551;4011.02564054;3877.43589668
3840.25640943;4138.71794851;3579.23076784;4698.84615482;4009.48717900;2830.64102266;229.99999153;-0.00000896;4168.20512807;2593.20512473;3251.02563894;4299.87179501;3318.33333139;4202.30769224;4010.76923029;3844.48717866
3781.79487083;4171.92307679;2895.76922792;4664.61538552;3449.74358808;2791.28204823;101.53845279;-0.00000896;4103.58974332;2628.20512480;2501.28204760;4299.61538476;2659.61538128;4201.15384609;4010.51282003;3778.84615288
3780.64102467;4207.82051275;3348.97435710;4664.48718039;3809.74358884;2763.07691995;136.53845286;-0.00000896;4004.61538413;2658.58974026;2890.51281767;4272.30769238;3086.53845911;4204.61538455;4010.64102516;3778.84615288
3809.99999910;4241.28205129;3284.23076722;4668.58974450;3778.46153749;2728.71794553;229.99999153;-0.00000896;3911.92307623;2697.69230443;2858.07692016;4274.61538469;2989.48717685;4205.76923070;4037.30769189;3811.66666577
3839.99999917;4267.43589751;3153.97435669;4695.38461636;3616.66666535;2661.15384282;136.53845286;-0.00000896;3842.43589661;2759.23076611;2794.61538156;4302.05128219;2925.64102287;4207.05128199;4011.02564054;3844.48717866
3846.53846071;4238.84615385;2792.43589438;4698.33333431;3257.17948510;2626.15384275;229.99999153;-0.00000896;3744.23076819;2790.38461233;2205.12820082;4271.28205136;2431.41025259;4208.07692301;4010.12820465;3844.48717866
3879.35897360;4236.66666667;2793.58974054;4698.71794969;3284.74358773;2658.97435564;136.53845286;-0.00000896;3679.74358857;2793.84615079;2500.12820145;4300.89743604;2561.79486825;4207.05128199;4010.89743541;3877.30769155
3941.66666605;4236.15384616;2922.43589466;4727.17948823;3317.30769037;2631.15384275;229.99999153;-0.00000896;3678.84615267;2793.58974054;2435.51281669;4273.46153853;2696.53845828;4235.89743590;4011.28205080;3943.07692246
3978.20512765;4235.51282052;2960.12820242;4759.48718060;3447.69230603;2596.66666320;136.53845286;-0.00000896;3710.25640915;2762.30768918;2630.64102224;4299.48717963;2758.71794559;4236.02564103;4010.12820465;3975.89743535
4007.56410208;4206.15384609;2959.61538191;4795.38461657;3415.89743416;2666.28204795;229.99999153;-0.00000896;3612.17948586;2792.30768925;2564.48717595;4273.97435905;2725.64102245;4238.71794872;4011.28205080;4008.71794824
4041.15384574;4205.25641019;3027.43589487;4798.07692426;3418.07692134;2791.66666361;136.53845286;-0.00000896;3413.71794698;2791.02563797;2500.12820145;4272.94871802;2659.87179154;4237.82051282;4011.92307644;4041.53846113
4106.28205101;4207.69230763;3121.53845918;4729.48718053;3453.46153680;2757.94871483;229.99999153;-0.00000896;3349.87179300;2761.41025329;2595.12820166;4272.30769238;2696.53845828;4239.87179488;4011.66666618;4107.17948691
4143.20512800;4234.10256411;3220.38461323;4694.61538559;3682.05128087;2662.56409923;136.53845286;-0.00000896;3446.79487013;2762.94871483;2693.58974033;4272.05128212;2889.87179203;4238.58974359;4011.66666618;4139.87179467
4174.10256397;4207.43589737;3158.58974130;4696.66666764;3519.10256258;2628.58974019;229.99999153;-0.00000896;3485.12820353;2763.58974047;2758.07691995;4272.69230777;2824.23076625;4241.92307693;4011.66666618;4172.69230756
4202.17948711;4206.28205122;2599.74358627;4701.28205226;3090.51281808;2691.92307366;136.53845286;-0.00000896;3450.38461372;2758.97435585;2166.92307255;4271.92307700;2333.33332931;4267.30769238;4011.66666618;4205.51282045
4205.12820506;4208.46153840;3019.99999743;4728.71794976;3413.97435724;2728.20512501;229.99999153;-0.00000896;3451.79487013;2731.92307373;2527.56409895;4300.25641040;2659.35897103;4267.56410264;4011.66666618;4205.64102558
4208.20512814;4236.02564103;3188.97435675;4760.76923188;3548.84615239;2729.99999681;136.53845286;-0.00000896;3519.23076771;2728.58974040;2598.20512473;4270.25641033;2792.94871490;4270.25641033;4037.30769189;4205.64102558
4208.97435891;4239.87179488;3058.84615135;4797.82051401;3517.17948565;2730.12820194;229.99999153;-0.00000896;3519.61538309;2727.94871476;2567.69230415;4272.17948725;2759.87179175;4268.71794879;4011.79487131;4205.64102558
4205.89743583;4240.25641026;2957.82051011;4858.46153979;3384.61538281;2789.99999695;136.53845286;-0.00000896;3381.28204948;2764.61538149;2498.84615017;4299.48717963;2662.94871462;4268.97435905;4037.69230728;4205.76923070
4206.15384609;4236.02564103;2659.61538128;4827.82051408;3023.84615128;2829.74358676;229.99999153;-0.00000896;3153.07692079;2797.43589438;2171.53845716;4269.48717956;2238.07691884;4270.25641033;4037.94871754;4205.64102558
4240.00000000;4236.66666667;2861.53845862;4731.02564207;3318.33333139;2829.23076625;136.53845286;-0.00000896;3122.17948482;2791.53845848;2303.33332924;4273.07692315;2532.05127844;4271.15384623;4037.17948677;4238.46153847
4299.48717963;4238.58974359;2660.51281718;4667.56410347;2992.43589480;2823.46153548;229.99999153;-0.00000896;3220.38461323;2758.58974047;2136.79486735;4272.56410264;2303.58973949;4274.61538469;4011.66666618;4303.97435912
4303.71794886;4267.82051289;2498.07691940;4666.41025732;2893.33333049;2794.48717643;136.53845286;-0.00000896;3319.61538267;2726.79486860;2036.41025176;4270.38461546;2172.05127768;4273.71794879;4012.05128157;4303.97435912
4300.51282066;4240.89743590;2496.92307324;4699.35897534;2957.94871524;2727.30768912;229.99999153;-0.00000896;3413.71794698;2792.30768925;2036.66666201;4270.12820520;2333.33332931;4273.20512828;4037.30769189;4303.97435912
4238.33333334;4235.64102564;2862.43589452;4727.69230874;3252.69230561;2827.94871496;136.53845286;-0.00000896;3347.94871608;2794.87179182;2170.38461101;4272.56410264;2499.61538094;4273.97435905;4037.17948677;4238.46153847
4204.74358968;4235.25641026;3054.61538212;4694.48718046;3355.51281864;2987.30768967;229.99999153;-0.00000896;3186.79486958;2792.05127900;2463.20512446;4270.00000007;2790.25640720;4266.92307700;4012.17948670;4205.51282045
4203.20512814;4239.23076923;3124.99999764;4627.82051366;3486.41025482;2958.46153576;136.53845286;-0.00000896;3184.48717727;2764.61538149;2500.64102196;4269.35897443;2922.56409979;4302.17948732;4037.05128164;4205.51282045
4201.02564096;4268.97435905;3283.84615183;4596.15384692;3452.82051116;2928.33333056;229.99999153;-0.00000896;3223.71794657;2761.15384303;2534.48717588;4268.97435905;2958.58974088;4301.41025655;4037.82051241;4205.51282045
4201.02564096;4300.38461553;2758.97435585;4596.15384692;2953.84615114;2889.48717664;136.53845286;-0.00000896;3186.66666445;2761.53845842;2232.05127782;4268.84615392;2462.43589369;4301.28205142;4037.82051241;4205.51282045
4174.61538448;4299.48717963;2926.53845876;4629.10256494;3186.79486958;2790.51281746;229.99999153;-0.00000896;3119.74358738;2796.92307387;2302.94871385;4268.97435905;2760.51281739;4301.02564117;4039.87179446;4172.69230756
4175.89743576;4271.28205136;3288.20512619;4633.20512904;3581.66666528;2857.82050991;105.76922202;-0.00000896;3019.99999743;2824.35897137;2596.53845807;4269.23076930;3024.99999743;4303.33333348;4040.64102523;4172.69230756
4204.87179481;4270.76923084;3545.89743444;4629.10256494;3712.82051171;2954.87179217;134.35896568;-0.00000896;2956.53845883;2792.82050977;2862.82050991;4268.20512828;3219.23076708;4305.64102578;4038.07692266;4205.51282045
4237.69230770;4272.17948725;3611.53846022;4570.00000070;3840.76922994;2959.87179217;33.71793983;-0.00000896;2992.05127941;2789.74358669;2958.84615114;4267.94871802;3354.99999813;4303.97435912;4037.05128164;4238.20512821
4269.48717956;4303.07692322;3381.41025461;4562.56410326;3616.66666535;2987.17948454;229.99999153;-0.00000896;3059.10256160;2764.61538149;2828.20512522;4269.48717956;3086.79486937;4305.25641040;4038.20512779;4271.02564110
4271.66666674;4334.48717970;3023.33333077;4562.30769301;3350.89743403;2990.38461275;229.99999153;-0.00000896;3153.07692079;2760.38461226;2531.53845793;4269.87179495;2792.05127900;4304.23076937;4040.12820472;4271.02564110
4271.02564110;4366.53846182;3283.58974158;4565.12820583;3584.87179349;2989.87179224;229.99999153;-0.00000896;3217.43589529;2791.28204823;2631.53845814;4269.23076930;2994.74358711;4304.74358989;4038.97435856;4271.02564110
4268.07692315;4371.02564131;3512.30769078;4600.25641102;3812.94871705;2928.71794594;229.99999153;-0.00000896;3251.02563894;2793.97435592;2954.99999729;4241.79487180;3224.35897221;4305.12820527;4038.71794830;4271.15384623
4236.28205129;4369.87179515;3879.10256334;4663.46153937;4238.97435898;2955.64102293;-0.00000896;-0.00000896;3284.23076722;2828.33333035;3354.35897249;4267.05128212;3776.92307595;4307.17948732;4039.48717907;4238.33333334
4205.76923070;4370.89743618;3649.87179362;4697.69230867;3973.07692252;2993.20512557;-0.00000896;-0.00000896;3220.12820298;2828.07692009;2993.71794608;4241.41025641;3351.02563915;4307.43589758;4039.99999959;4205.51282045
4201.28205122;4370.89743618;3874.48717873;4727.69230874;4143.46153826;3025.12820256;-0.00000896;-0.00000896;3184.87179265;2859.99999709;3283.07692107;4240.38461539;3611.41025509;4333.84615406;4039.99999959;4205.64102558
4173.33333320;4370.00000028;3941.15384553;4732.56410361;4175.25641012;3092.69230526;-0.00000896;-0.00000896;3184.23076701;2860.25640734;3352.05128018;4240.00000000;3646.28205004;4334.10256431;4040.12820472;4172.82051269
4143.46153826;4371.41025669;3877.94871719;4762.05128317;4201.28205122;3122.17948482;-0.00000896;-0.00000896;3157.94871566;2829.87179189;3250.38461330;4267.05128212;3676.66666549;4332.94871816;4042.05128164;4139.99999980
4140.25641005;4400.64102599;3974.99999945;4794.48718067;4240.38461539;3121.53845918;-0.00000896;-0.00000896;3156.02563874;2827.69230471;3352.17948531;4240.89743590;3747.17948614;4336.15384637;4040.76923036;4139.99999980
4135.76923056;4402.69230804;3977.94871740;4857.82051414;4173.71794858;3125.76922841;-0.00000896;-0.00000896;3118.58974123;2859.74358683;3251.66666459;4240.38461539;3676.66666549;4337.05128226;4041.28205087;4140.12820492
4108.84615357;4431.41025683;3781.02564006;4925.12820659;4071.92307658;3157.43589515;-0.00000896;-0.00000896;3022.56410000;2894.74358690;3219.74358759;4238.20512821;3581.28204990;4335.89743611;4041.66666625;4107.30769203
4107.30769203;4431.92307734;3680.64102446;4990.64102724;4007.69230721;3221.41025426;-0.00000896;-0.00000896;2921.53845876;2921.28204851;2957.43589473;4239.10256411;3450.76922911;4337.82051303;4041.79487138;4107.43589716
4109.99999973;4432.56410298;3944.23076861;4991.92307853;4103.46153819;3255.25640818;-0.00000896;-0.00000896;2758.07691995;2924.35897158;3189.10256188;4236.79487180;3546.15384470;4339.35897457;4042.56410215;4107.43589716
4138.07692287;4433.46153888;4006.41025593;4961.66666820;4142.05128185;3254.23076715;-0.00000896;-0.00000896;2659.35897103;2922.94871517;3222.69230554;4236.53846154;3618.07692176;4338.97435919;4042.17948677;4140.12820492
4142.17948697;4433.07692350;3943.84615322;4926.66666813;4076.28205094;3286.79486978;-0.00000896;-0.00000896;2598.97435550;2922.56409979;3026.02563846;4236.15384616;3580.64102426;4339.74358996;4043.20512779;4140.12820492
4170.64102551;4433.71794914;3971.79487124;4890.38461678;4143.46153826;3318.58974165;-0.00000896;-0.00000896;2594.99999653;2895.25640741;3157.82051053;4234.10256411;3810.12820423;4367.30769259;4044.99999959;4172.94871781
4174.48717935;4436.66666709;3812.69230679;4859.48718081;3906.15384546;3351.79486992;-0.00000896;-0.00000896;2595.38461191;2892.30768946;2990.25640762;4208.71794865;3549.48717803;4366.53846182;4044.23076882;4172.94871781
4201.79487173;4464.10256459;3814.10256320;4831.66666792;3938.46153784;3380.51281871;-0.00000896;-0.00000896;2562.94871441;2921.66666389;2923.46153569;4208.58974352;3482.69230610;4367.82051310;4044.74358933;4205.64102558
4204.99999993;4470.89743639;3845.89743507;4829.74359100;4043.33333292;3317.69230575;-0.00000896;-0.00000896;2462.56409882;2955.12820242;2922.43589466;4208.46153840;3519.48717796;4367.94871823;4044.48717907;4205.64102558
4208.97435891;4469.48717998;3714.48717838;4830.38461664;4041.02564061;3319.35897242;-0.00000896;-0.00000896;2461.53845779;2987.69230506;2824.61538163;4205.89743583;3419.48717775;4367.43589772;4044.87179446;4205.64102558
4234.87179488;4465.12820562;3744.48717845;4796.15384734;3974.48717894;3381.92307512;-0.00000896;-0.00000896;2429.61538080;2956.92307422;3090.12820270;4206.15384609;3579.74358836;4369.48717977;4044.99999959;4238.46153847
4207.94871788;4438.07692350;3911.79487110;4699.35897534;4336.53846175;3413.58974186;-0.00000896;-0.00000896;2365.76922681;2987.94871531;3153.58974130;4207.17948711;3714.99999889;4370.25641054;4069.87179453;4205.51282045
4206.79487173;4436.53846196;3906.28205059;4629.10256494;4207.05128199;3416.02563929;-0.00000896;-0.00000896;2397.69230380;2989.10256147;3123.97435662;4206.79487173;3616.41025509;4369.74359003;4070.38461504;4205.51282045
4204.23076917;4436.41025683;3714.61538351;4562.05128275;4041.02564061;3386.53845974;-0.00000896;-0.00000896;2434.48717567;2959.10256140;3055.76922827;4204.23076917;3413.97435724;4369.23076951;4070.76923043;4205.38461532
4202.94871788;4436.02564145;3681.28205010;4529.74359037;4009.35897388;3384.48717768;-0.00000896;-0.00000896;2431.53845772;2989.48717685;2796.79486874;4203.84615378;3480.51281892;4371.41025669;4044.61538420;4205.38461532
4201.92307686;4464.23076972;3482.82051123;4503.20512876;3874.48717873;3419.35897263;-0.00000896;-0.00000896;2434.48717567;2989.48717685;2563.33332979;4205.12820506;3152.30769002;4370.89743618;4071.15384581;4205.38461532
4175.89743576;4466.15384664;3648.20512696;4500.00000056;3978.84615329;3447.17948552;-0.00000896;-0.00000896;2495.38461171;2989.10256147;2598.84615038;4205.51282045;3446.66666500;4371.79487208;4071.02564068;4172.56410243
4175.89743576;4467.94871844;3776.28205031;4497.69230825;4174.35897422;3449.23076757;229.99999153;-0.00000896;2533.58973998;2990.51281788;2728.46153527;4204.23076917;3453.20512654;4372.43589772;4071.53846119;4172.56410243
4170.51282038;4470.51282100;3643.84615260;4471.66666716;4070.25640991;3480.76922917;2.17947822;-0.00000896;2534.74358613;2990.76922813;2595.89743243;4203.33333327;3385.64102384;4372.17948746;4071.15384581;4172.56410243
4168.33333320;4500.12820569;3616.15384484;4466.53846203;4004.10256362;3480.76922917;4.99999104;-0.00000896;2496.66666299;2991.53845890;2697.56409930;4205.51282045;3382.17948538;4372.30769259;4072.56410222;4172.56410243
4142.56410236;4532.17948781;3480.89743430;4436.15384657;3940.12820451;3451.41025475;137.05127337;-0.00000896;2462.69230394;2989.87179224;2564.61538108;4176.02564089;3121.79486944;4371.66666695;4072.94871761;4139.61538441
4143.07692287;4562.05128275;3616.28204997;4431.28205170;3977.82051227;3446.66666500;229.99999153;-0.00000896;2465.25640651;3020.76922820;2563.20512467;4175.76923063;3351.53845967;4373.07692336;4070.89743555;4139.61538441
4169.10256397;4565.76923147;3644.99999875;4403.71794907;3976.79487124;3418.07692134;229.99999153;-0.00000896;2467.43589369;3024.35897179;2825.76922779;4175.51282038;3416.79487006;4373.20512849;4073.33333299;4172.43589730
4171.53846140;4567.56410326;3482.17948559;4405.51282086;3877.05128129;3419.99999827;229.99999153;-0.00000896;2500.64102196;3052.94871545;2666.53845821;4202.69230763;3282.05128004;4371.28205156;4073.71794837;4172.43589730
4172.30769217;4594.87179564;3906.53846085;4406.02564138;4235.64102564;3420.76922904;229.99999153;-0.00000896;2531.92307331;3087.56410014;3021.02563846;4204.74358968;3645.76922952;4373.20512849;4074.23076889;4172.43589730
4172.17948704;4596.15384692;3745.89743486;4432.56410298;4102.82051255;3417.94871622;229.99999153;-0.00000896;2564.99999646;3119.99999764;3059.74358725;4204.99999993;3710.38461428;4373.07692336;4074.74358940;4172.43589730
4171.66666653;4597.30769308;3873.20512744;4436.02564145;4136.92307672;3387.69230589;229.99999153;-0.00000896;2594.23076576;3153.97435669;2956.41025370;4203.58974352;3811.53846064;4399.23076958;4075.25640991;4172.43589730
4169.23076910;4597.17948795;3808.97435807;4464.61538511;4040.25640984;3382.30769050;229.99999153;-0.00000896;2628.20512480;3185.12820291;3088.46153603;4176.02564089;3745.64102460;4398.97435933;4076.28205094;4172.56410243
4141.79487159;4596.28205205;3907.17948649;4468.20512870;4142.56410236;3354.74358787;229.99999153;-0.00000896;2632.56409916;3219.48717734;2828.71794573;4176.02564089;3683.20512703;4399.35897471;4075.76923043;4139.74358954
4136.92307672;4567.56410326;3846.28205045;4499.61538518;4075.38461504;3349.74358787;229.99999153;-0.00000896;2660.25640692;3256.41025433;3092.82051039;4202.30769224;3714.10256299;4398.71794907;4076.79487145;4139.74358954
4107.05128178;4563.84615454;4076.02564068;4530.51282114;4201.15384609;3348.71794685;229.99999153;-0.00000896;2661.53845821;3317.69230575;2927.82051004;4201.66666660;3877.69230693;4398.07692343;4076.92307658;4106.92307665
4076.02564068;4532.82051345;4105.51282024;4536.28205191;4241.66666667;3352.30769044;229.99999153;-0.00000896;2664.35897103;3349.23076736;2929.10256133;4174.74358961;3877.56410180;4399.35897471;4104.10256383;4074.10256376
4069.87179453;4502.69230825;4007.05128157;4567.43589813;4176.02564089;3353.33333146;229.99999153;-0.00000896;2659.99999667;3383.20512640;2695.76922751;4174.99999986;3811.02564013;4400.12820548;4102.56410229;4074.10256376
4039.10256369;4470.25641075;4071.66666632;4595.89743667;4303.97435912;3382.17948538;229.99999153;-0.00000896;2627.56409916;3388.46153666;2957.43589473;4201.79487173;4008.07692259;4399.61538497;4103.46153819;4041.41025600
4007.69230721;4464.61538511;3976.53846099;4599.23077000;4009.99999952;3387.94871615;229.99999153;-0.00000896;2532.82050921;3415.64102391;2925.89743312;4174.10256397;3815.25640936;4400.00000035;4103.46153819;4008.58974311
3978.07692252;4436.66666709;4303.07692322;4597.17948795;4332.56410278;3386.79486999;229.99999153;-0.00000896;2461.53845779;3419.48717775;3121.15384380;4175.51282038;4170.51282038;4400.51282086;4104.35897408;3975.76923022
3974.74358919;4431.41025683;4334.87179508;4568.33333403;4205.64102558;3413.84615211;229.99999153;-0.00000896;2367.94871399;3449.35897270;3184.74358752;4174.61538448;4135.38461518;4400.25641061;4077.30769196;3975.64102509
3974.61538406;4404.48717984;4076.92307658;4536.66666730;4107.05128178;3421.02563929;229.99999153;-0.00000896;2271.15384199;3452.43589577;2990.12820249;4173.84615371;3913.46153777;4401.41025676;4104.99999973;3975.64102509
3976.79487124;4401.66666702;4337.82051303;4504.48718005;4304.87179501;3450.76922911;229.99999153;-0.00000896;2233.71794448;3447.17948552;3220.25640811;4170.12820499;4202.05128199;4401.66666702;4105.51282024;3975.64102509
4004.87179439;4399.48717984;4238.71794872;4497.82051338;4270.51282059;3485.25640866;229.99999153;-0.00000896;2206.79486749;3450.51281885;3188.58974137;4175.25641012;4168.97435884;4402.69230804;4106.79487152;4008.46153798
4006.79487131;4399.48717984;4433.71794914;4464.61538511;4403.33333368;3515.38461386;229.99999153;-0.00000896;2203.71794441;3447.94871628;3252.94871587;4169.74358961;4208.07692301;4401.41025676;4107.05128178;4008.46153798
4008.71794824;4400.76923112;4302.94871809;4432.94871837;4337.82051303;3577.56410118;229.99999153;-0.00000896;2167.05127768;3446.15384449;3347.69230582;4169.10256397;4366.41025669;4402.05128240;4107.30769203;4008.33333285
4011.28205080;4402.82051317;4136.53846133;4401.28205163;4204.10256404;3612.17948586;229.99999153;-0.00000896;2169.48717511;3447.17948552;3118.84615149;4142.05128185;3976.79487124;4401.79487215;4108.20512793;4008.33333285
4037.69230728;4406.02564138;4169.10256397;4372.30769259;4175.89743576;3613.33333202;229.99999153;-0.00000896;2170.38461101;3418.07692134;3218.46153631;4171.28205115;4011.53846106;4401.53846189;4105.38461511;4041.15384574
4041.28205087;4435.25641068;4009.74358926;4371.02564131;4140.64102544;3644.23076798;229.99999153;-0.00000896;2140.76922633;3447.94871628;3186.41025419;4171.92307679;3978.84615329;4402.69230804;4108.71794844;4041.15384574
4071.28205094;4464.10256459;3910.64102495;4372.82051310;3946.41025579;3647.94871670;229.99999153;-0.00000896;2171.28204691;3418.46153673;3316.02563908;4171.02564089;4009.87179439;4403.20512856;4109.99999973;4073.97435863
4073.46153812;4469.10256459;3943.20512758;4371.66666695;4103.07692280;3680.25640908;229.99999153;-0.00000896;2206.15384185;3421.02563929;3216.92307477;4172.05128192;3977.69230714;4404.61538497;4109.74358947;4073.97435863
4071.53846119;4499.23076979;3977.94871740;4370.00000028;4010.51282003;3710.64102453;229.99999153;-0.00000896;2234.23076500;3447.17948552;3118.58974123;4169.87179474;4037.82051241;4402.56410292;4110.12820485;4073.97435863
4069.87179453;4529.61538524;3878.07692232;4367.94871823;4103.20512793;3712.69230658;229.99999153;-0.00000896;2205.51281621;3479.10256251;3151.02563874;4169.61538448;3742.94871691;4402.82051317;4110.51282024;4073.97435863
4069.87179453;4536.02564165;3971.28205073;4365.51282079;4043.58974318;3710.38461428;229.99999153;-0.00000896;2137.56409812;3516.41025489;3282.94871594;4168.58974345;3978.84615329;4403.20512856;4135.89743569;4073.97435863
4072.94871761;4565.76923147;3778.97435801;4339.48717970;3972.17948663;3682.69230651;229.99999153;-0.00000896;2070.76922619;3551.92307547;3354.87179300;4170.25641012;3811.79487090;4404.23076958;4135.76923056;4073.97435863
4102.56410229;4565.89743660;3907.94871726;4338.46153867;4011.02564054;3613.07692176;229.99999153;-0.00000896;2070.38461080;3643.84615260;2958.33333063;4169.48717935;3743.46153742;4403.84615420;4135.64102544;4106.79487152
4109.61538434;4562.82051352;3808.07692218;4334.61538483;4040.25640984;3546.79487034;229.99999153;-0.00000896;2136.41025197;3677.82051164;3446.53845987;4171.02564089;3875.51281975;4404.74359009;4136.92307672;4106.79487152
4137.30769210;4529.23076986;3880.25640950;4335.25641047;4010.12820465;3548.33333188;229.99999153;-0.00000896;2172.43589306;3678.84615267;3122.17948482;4142.82051262;3711.41025530;4403.07692343;4137.05128185;4139.61538441
4138.07692287;4471.28205177;4137.17948697;4307.43589758;4305.64102578;3585.25640887;8240.89744438;-0.00000896;2199.48717518;3680.25640908;3414.23076750;4170.25641012;4136.79487159;4404.61538497;4136.79487159;4139.48717928
4138.33333313;4467.05128254;3908.71794803;4304.74358989;4007.82051234;3616.02563971;8310.00000862;-0.00000896;2170.76922640;3682.56410139;3447.94871628;4142.30769210;3912.82051213;4403.07692343;4137.56410236;4139.48717928
4137.17948697;4464.23076972;3742.05128101;4303.46153860;3876.28205052;3584.74358836;229.99999153;-0.00000896;2202.69230339;3716.02563992;3216.41025426;4141.53846133;3582.43589605;4401.79487215;4138.97435877;4139.48717928
4136.66666646;4434.61538504;3879.10256334;4302.05128219;3873.58974283;3613.33333202;8310.00000862;-0.00000896;2205.76922646;3745.12820409;3056.66666417;4171.41025628;3749.61538358;4403.84615420;4137.94871774;4139.48717928
4136.15384595;4405.89743625;3418.07692134;4303.46153860;3478.97435738;3613.71794740;-0.00000896;-0.00000896;2207.05127775;3746.79487076;3118.84615149;4168.84615371;3549.87179342;4404.48717984;4138.07692287;4139.48717928
4110.64102537;4401.92307727;3742.43589640;4303.84615399;3746.28205024;3644.74358850;-0.00000896;-0.00000896;2233.58973935;3749.23076819;3252.43589536;4170.76923063;3716.28205017;4401.92307727;4138.71794851;4106.66666639
4135.64102544;4398.07692343;3649.87179362;4305.51282066;3680.89743472;3647.17948593;-0.00000896;-0.00000896;2233.33332910;3746.66666563;3418.84615211;4142.94871774;3649.23076798;4403.71794907;4140.64102544;4139.48717928
4110.38461511;4370.89743618;3583.58974220;4307.43589758;3676.79487062;3651.15384491;-0.00000896;-0.00000896;2206.02563672;3775.38461442;3087.05127962;4169.23076910;3577.43589605;4403.46153881;4138.71794851;4106.66666639
4135.76923056;4369.87179515;3550.76922931;4307.17948732;3743.84615281;3708.71794761;-0.00000896;-0.00000896;2201.28204698;3743.84615281;3189.99999778;4169.48717935;3451.15384449;4403.20512856;4138.71794851;4139.48717928
4137.94871774;4371.02564131;3807.82051192;4307.17948732;3746.53846050;3741.79487076;-0.00000896;-0.00000896;2201.15384185;3744.10256306;3188.71794650;4140.51282031;3680.76922959;4404.23076958;4139.61538441;4139.48717928
4138.46153826;4372.43589772;3678.71794754;4332.69230790;3644.99999875;3747.30769127;-0.00000896;-0.00000896;2201.02563672;3713.71794761;3283.97435696;4140.51282031;3680.51281934;4403.20512856;4139.48717928;4139.61538441
4142.69230749;4401.02564138;3712.17948607;4305.12820527;3646.66666542;3812.82051192;-0.00000896;-0.00000896;2167.82050845;3716.41025530;3119.35897200;4168.46153833;3807.17948628;4404.35897471;4139.10256390;4139.48717928
4170.51282038;4432.94871837;3581.66666528;4302.56410271;3548.46153701;3847.56410173;-0.00000896;-0.00000896;2100.51281600;3711.92307582;3515.64102412;4142.82051262;3708.71794761;4404.48717984;4139.87179467;4172.30769217
4203.71794865;4469.74359023;3483.58974200;4300.38461553;3647.56410132;3846.15384532;-0.00000896;-0.00000896;2103.07691856;3650.38461414;3156.92307463;4141.15384595;3347.82051095;4405.25641061;4140.89743569;4205.12820506
4234.48717949;4529.61538524;3712.69230658;4273.84615392;3714.48717838;3873.71794796;-0.00000896;-0.00000896;2104.35896985;3613.84615253;3315.51281857;4140.76923056;3813.20512731;4403.71794907;4140.38461518;4237.94871795
4237.30769231;4565.76923147;3676.79487062;4272.94871802;3878.07692232;3840.64102481;-0.00000896;-0.00000896;2104.99999549;3547.05128060;3321.79486985;4139.35897415;3676.41025523;4404.10256445;4140.25641005;4237.94871795
4237.94871795;4602.82051359;3839.99999917;4269.48717956;3842.43589661;3746.28205024;-0.00000896;-0.00000896;2171.15384178;3546.28204983;3123.97435662;4142.69230749;3774.99999903;4402.43589779;4139.74358954;4237.94871795
4207.05128199;4634.10256494;3776.53846057;4272.56410264;3875.38461462;3714.23076812;-0.00000896;-0.00000896;2233.20512397;3549.23076778;3552.05128060;4140.64102544;3876.15384539;4402.17948753;4140.64102544;4205.12820506
4174.35897422;4664.61538552;3840.25640943;4303.07692322;3873.71794796;3742.17948614;-0.00000896;-0.00000896;2198.97435467;3583.20512682;3320.12820319;4142.94871774;3811.02564013;4403.46153881;4140.64102544;4172.30769217
4169.99999986;4695.38461636;4107.43589716;4306.53846168;4107.17948691;3744.10256306;-0.00000896;-0.00000896;2107.56409805;3646.28205004;3582.43589605;4142.82051262;4174.23076910;4403.07692343;4141.02564082;4172.30769217
4142.43589723;4697.94871893;3974.99999945;4305.76923091;4107.94871767;3709.23076812;-0.00000896;-0.00000896;2071.15384157;3683.33333216;3616.02563971;4140.51282031;3908.07692239;4405.38461574;4141.28205108;4139.48717928
4139.23076903;4701.02564200;3810.12820423;4301.66666681;3812.56410166;3651.15384491;-0.00000896;-0.00000896;2038.46153381;3714.35897325;3482.94871635;4138.97435877;3906.79487110;4404.10256445;4141.66666646;4139.48717928
4135.38461518;4699.10256508;3910.64102495;4267.82051289;4010.25640977;3649.10256286;-0.00000896;-0.00000896;2003.84614912;3777.69230672;3319.23076729;4140.38461518;3872.94871719;4406.02564138;4141.79487159;4139.48717928
4107.82051255;4697.43589841;3875.76923001;4234.74358975;3945.76923015;3644.74358850;-0.00000896;-0.00000896;1969.23076444;3814.10256320;3479.99999841;4139.87179467;3878.84615309;4402.30769266;4142.69230749;4106.66666639
4108.33333306;4694.87179585;4008.46153798;4204.10256404;3977.17948663;3647.43589619;-0.00000896;-0.00000896;1973.58973880;3812.69230679;3484.61538302;4139.99999980;4070.51282017;4403.84615420;4168.84615371;4106.66666639
4107.82051255;4668.58974450;3880.38461462;4174.10256397;3879.48717873;3648.71794747;-0.00000896;-0.00000896;2002.17948246;3847.43589661;3419.99999827;4169.99999986;3940.89743528;4403.46153881;4143.07692287;4106.53846126
4105.51282024;4667.30769321;3907.82051213;4171.53846140;4041.92307651;3648.97435773;-0.00000896;-0.00000896;1973.46153367;3848.07692225;3514.87179335;4142.17948697;3845.76922994;4403.33333368;4142.17948697;4106.53846126
4104.87179460;4668.07692398;3713.20512710;4168.46153833;3682.05128087;3679.48717831;-0.00000896;-0.00000896;1971.28204649;3875.25640950;3480.76922917;4142.43589723;3938.46153784;4404.10256445;4168.58974345;4106.53846126
4104.48717921;4695.64102662;4012.17948670;4139.10256390;3977.17948663;3710.89743479;229.99999153;-0.00000896;2005.38461066;3872.94871719;3514.74358822;4141.53846133;4008.97435849;4404.23076958;4168.58974345;4106.53846126
4077.69230735;4726.53846258;4140.76923056;4108.33333306;4103.20512793;3714.87179376;229.99999153;-0.00000896;2003.71794400;3874.10256334;3585.38461400;4139.61538441;4039.74358933;4402.56410292;4169.61538448;4073.71794837
4075.25640991;4759.61538573;3912.56410187;4104.35897408;4072.69230735;3745.25640922;229.99999153;-0.00000896;2004.74358502;3846.53846071;3512.82051130;4143.20512800;3943.46153784;4402.56410292;4169.74358961;4073.71794837
4070.51282017;4767.05128317;4072.05128171;4077.43589709;4135.76923056;3709.35897325;229.99999153;-0.00000896;2069.61538003;3875.25640950;3714.10256299;4139.35897415;4168.71794858;4403.46153881;4170.64102551;4073.71794837
4036.92307651;4799.74359093;3878.58974283;4074.99999966;3906.92307623;3678.97435780;8273.46154701;-0.00000896;2074.61538003;3911.66666598;3552.43589598;4142.69230749;3941.28205066;4403.46153881;4171.15384602;4040.89743548
3977.69230714;4831.79487305;4203.71794865;4070.89743555;4103.20512793;3709.87179376;135.89742722;-0.00000896;2074.10255952;3976.02564047;3748.46153742;4168.97435884;4270.25641033;4403.71794907;4172.05128192;3975.25640970
3942.56410194;4862.94871927;4171.41025628;4037.82051241;4102.82051255;3649.10256286;229.99999153;-0.00000896;2100.89743138;4037.17948677;3612.82051150;4143.33333313;4241.79487180;4402.17948753;4172.43589730;3942.30769169
3907.05128136;4893.07692447;3910.64102495;3978.07692252;3909.61538392;3610.51281920;135.89742722;-0.00000896;2040.51281586;4106.92307665;3448.84615218;4168.20512807;3941.53846092;4401.66666702;4174.61538448;3909.48717880
3876.02564027;4895.25641165;4171.53846140;3944.99999938;4138.07692287;3549.74358829;229.99999153;-0.00000896;2008.07691836;4208.07692301;3485.12820353;4170.76923063;4008.71794824;4400.64102599;4174.48717935;3876.66666591
3872.82051206;4893.58974498;3814.23076833;3941.02564040;3741.53846050;3481.41025482;135.89742722;-0.00000896;2034.87179022;4269.61538469;3381.28204948;4141.92307672;3777.05128108;4401.79487215;4201.15384609;3876.66666591
3846.66666584;4862.30769363;3877.30769155;3909.10256341;3747.69230665;3421.28204955;229.99999153;-0.00000896;2072.05127747;4335.12820534;3384.10256230;4142.56410236;4010.38461490;4401.92307727;4201.15384609;3843.71794789
3845.64102481;4830.51282177;4072.30769196;3907.05128136;3939.61538399;3384.74358794;135.89742722;-0.00000896;2101.41025190;4432.05128247;3417.30769057;4142.94871774;3974.99999945;4401.53846189;4201.41025634;3843.71794789
3843.97435814;4797.05128324;4040.76923036;3880.51281975;3776.79487083;3387.94871615;229.99999153;-0.00000896;2074.74358516;4501.28205184;3351.92307505;4142.69230749;4104.99999973;4399.61538497;4202.82051275;3843.71794789
3846.15384532;4762.56410368;4043.33333292;3878.07692232;3873.58974283;3355.64102377;135.89742722;-0.00000896;2069.61538003;4564.10256480;3414.35897263;4143.46153826;3906.66666598;4399.74359009;4202.94871788;3843.71794789
3873.97435821;4726.41025746;3942.05128143;3874.87179411;3774.74358877;3320.51281857;229.99999153;-0.00000896;2104.99999549;4600.76923154;3353.07692120;4169.35897422;3945.76923015;4398.71794907;4204.23076917;3876.53846078
3875.51281975;4694.10256508;3880.12820437;3873.71794796;3581.41025502;3314.87179293;135.89742722;-0.00000896;2141.15384171;4630.89743674;3321.66666472;4169.74358961;3941.41025579;4398.97435933;4207.56410250;3876.53846078
3878.20512744;4633.07692391;3908.71794803;3844.10256327;3583.20512682;3283.46153645;229.99999153;-0.00000896;2168.58973922;4662.69230860;3187.05127983;4171.02564089;3874.48717873;4372.69230797;4206.15384609;3876.53846078
3907.05128136;4595.89743667;4138.71794851;3844.99999917;3878.20512744;3253.97435689;135.89742722;-0.00000896;2205.51281621;4701.02564200;3256.92307484;4169.99999986;4007.30769183;4372.82051310;4207.30769224;3909.35897367
3911.79487110;4536.28205191;3676.02563985;3846.02564020;3384.23076743;3283.07692107;229.99999153;-0.00000896;2265.12820096;4699.23077021;3285.76922876;4172.05128192;3581.41025502;4372.94871823;4207.69230763;3909.35897367
3913.07692239;4503.97435953;3939.99999938;3846.92307609;3512.82051130;3283.07692107;135.89742722;-0.00000896;2300.12820103;4696.53846252;3220.12820298;4171.41025628;3840.89743507;4398.58974394;4208.07692301;3909.35897367
3910.76923008;4498.58974415;3973.58974304;3873.20512744;3518.46153694;3285.51281850;229.99999153;-0.00000896;2301.02563693;4697.43589841;3315.25640831;4172.43589730;3907.56410187;4373.20512849;4234.35897436;3909.35897367
3910.76923008;4497.43589800;3845.89743507;3874.48717873;3352.82051095;3224.35897221;135.89742722;-0.00000896;2299.87179078;4731.66666771;3152.17948489;4171.28205115;3713.20512710;4371.41025669;4234.48717949;3909.35897367
3911.92307623;4470.38461587;3846.79487096;3878.07692232;3580.25640887;3191.41025419;229.99999153;-0.00000896;2332.69230367;4762.82051394;3249.48717741;4170.76923063;3679.35897318;4372.05128233;4234.87179488;3909.35897367
3912.30769162;4467.17948767;3746.15384512;3906.41025572;3315.12820319;3221.02563888;135.89742722;-0.00000896;2331.66666264;4792.30769349;3287.30769030;4172.82051269;3745.64102460;4372.56410285;4235.12820513;3909.35897367
3913.46153777;4466.02564152;4044.61538420;3905.76923008;3615.89743458;3157.56410027;229.99999153;-0.00000896;2331.92307290;4830.12820638;3322.94871601;4173.20512807;3808.07692218;4370.12820541;4237.43589744;3909.35897367
3939.99999938;4436.53846196;4137.82051262;3878.07692232;3646.28205004;3154.23076694;135.89742722;-0.00000896;2301.79486770;4865.00000132;3481.41025482;4173.58974345;3944.99999938;4370.00000028;4235.89743590;3942.17948656
3942.17948656;4435.00000042;3811.41025551;3841.79487096;3448.33333167;3151.41025412;229.99999153;-0.00000896;2271.41025224;4894.23077062;3218.46153631;4174.61538448;3709.61538351;4367.94871823;4236.92307693;3942.17948656
3946.02564040;4431.79487222;3879.99999924;3813.20512731;3583.33333195;3090.89743347;135.89742722;-0.00000896;2297.69230360;4955.89743743;3352.17948531;4173.20512807;3812.05128115;4368.97435926;4237.30769231;3942.17948656
3974.10256355;4403.20512856;3880.12820437;3779.61538365;3413.46153673;3093.07692065;229.99999153;-0.00000896;2301.02563693;4928.46153992;3256.79486971;4171.79487166;3713.46153735;4368.20512849;4238.07692308;3974.87179432
3976.66666611;4401.79487215;4105.38461511;3746.79487076;3744.48717845;3086.66666424;135.89742722;-0.00000896;2396.41025252;4925.51282198;3252.94871587;4175.51282038;3781.66666570;4368.33333362;4238.71794872;3974.87179432
3975.76923022;4402.69230804;4038.84615343;3715.51281940;3579.35897297;3055.89743340;229.99999153;-0.00000896;2461.66666292;4928.46153992;3479.74358815;4173.71794858;3845.25640943;4365.12820541;4239.87179488;3974.87179432
3974.61538406;4404.35897471;4337.30769252;3712.94871684;3811.92307602;3054.10256160;135.89742722;-0.00000896;2469.48717574;4929.74359121;3414.10256237;4174.87179474;4041.15384574;4339.74358996;4238.71794872;3974.87179432
3971.53846099;4431.15384657;4105.64102537;3683.71794754;3711.92307582;3025.51281795;229.99999153;-0.00000896;2532.56409895;4962.69230922;3448.58974193;4175.38461525;3840.12820430;4339.35897457;4240.51282052;3974.87179432
3944.10256348;4432.94871837;4372.43589772;3681.15384498;3912.43589674;3026.66666410;32.94870906;-0.00000896;2565.12820159;4930.76923223;3580.38461400;4203.07692301;4077.05128171;4365.12820541;4240.89743590;3942.05128143
3938.84615322;4464.23076972;4531.66666730;3647.82051157;4038.58974318;2992.82051018;101.92306817;-0.00000896;2567.05127851;4993.07692468;3906.53846085;4203.33333327;4334.74358996;4339.61538483;4241.66666667;3941.92307630
3908.84615316;4467.94871844;4598.07692385;3613.84615253;4076.28205094;2894.74358690;8242.82052130;-0.00000896;2626.79486839;5055.51282225;3780.64102467;4201.66666660;4300.00000014;4338.58974380;4241.92307693;3909.10256341
3910.12820444;4468.84615434;4731.53846258;3615.38461407;4208.33333327;2861.41025350;229.99999153;-0.00000896;2660.25640692;5094.35897617;3942.43589681;4202.94871788;4470.89743639;4335.89743611;4267.17948725;3909.10256341
3913.71794803;4469.23076972;4597.94871872;3643.71794747;4109.10256383;2862.56409965;229.99999153;-0.00000896;2727.69230450;5124.48718137;3774.99999903;4205.51282045;4307.05128219;4336.15384637;4266.79487187;3909.10256341
3939.48717887;4467.94871844;4697.05128303;3643.46153721;4175.38461525;2889.87179203;229.99999153;-0.00000896;2858.58974068;5127.43589932;3907.82051213;4208.07692301;4437.56410298;4338.07692329;4268.58974366;3941.92307630
3913.33333264;4464.23076972;4570.12820583;3614.74358843;4108.20512793;2859.10256119;229.99999153;-0.00000896;2924.48717671;5191.15384817;3844.99999917;4205.38461532;4302.17948732;4332.82051303;4268.97435905;3909.10256341
3913.20512751;4437.94871837;4596.66666743;3613.20512689;4006.28205080;2858.46153555;-0.00000896;-0.00000896;2928.71794594;5251.41025857;3846.66666584;4204.61538455;4367.30769259;4332.69230790;4270.51282059;3909.10256341
3941.02564040;4437.69230811;4267.05128212;3613.84615253;3813.58974269;2824.87179189;-0.00000896;-0.00000896;2959.48717678;5251.66666882;3353.33333146;4234.48717949;3716.15384505;4307.43589758;4268.33333341;3941.92307630
3943.71794810;4436.79487222;4109.23076896;3611.66666535;3715.25640915;2796.15384310;-0.00000896;-0.00000896;3055.25640776;5254.87179703;3480.38461379;4206.28205122;3808.97435807;4305.89743604;4269.74358982;3941.92307630
3944.61538399;4436.15384657;3416.79487006;3610.64102432;3873.58974283;2789.99999695;-0.00000896;-0.00000896;3153.33333104;5287.82051505;3649.61538337;4234.87179488;3913.71794803;4306.02564117;4271.28205136;3941.92307630
3942.69230707;4435.64102606;3611.28204997;3611.41025509;4073.33333299;2729.61538142;-0.00000896;-0.00000896;3224.23076708;5323.97436127;3873.58974283;4206.53846147;4140.12820492;4304.10256425;4273.46153853;3941.92307630
3939.48717887;4431.02564145;3611.66666535;3613.71794740;4173.20512807;2697.17948392;-0.00000896;-0.00000896;3289.35897235;5386.53846397;3977.94871740;4205.76923070;4304.35897450;4302.82051296;4272.69230777;3941.92307630
3912.43589674;4402.17948753;3486.79487020;3644.99999875;4235.25641026;2697.30768905;-0.00000896;-0.00000896;3351.66666479;5416.41025892;3943.33333271;4234.87179488;4268.46153853;4301.92307707;4272.82051289;3909.10256341
3910.76923008;4372.94871823;3348.97435710;3648.97435773;3943.46153784;2731.79486860;-0.00000896;-0.00000896;3384.35897256;5418.07692558;3748.07692204;4207.69230763;3944.35897374;4299.48717963;4273.84615392;3909.10256341
3911.28205059;4370.64102592;3351.79486992;3649.74358850;4103.84615357;2725.76922758;-0.00000896;-0.00000896;3322.94871601;5388.33333577;3749.48717845;4233.84615385;4042.43589702;4274.23076930;4274.23076930;3909.10256341
3913.46153777;4371.53846182;3382.56410076;3647.69230645;3940.64102502;2658.58974026;-0.00000896;-0.00000896;3382.69230589;5450.64102822;3778.33333236;4236.02564103;4038.71794830;4272.82051289;4274.74358982;3909.10256341
3941.02564040;4368.07692336;3415.25640852;3647.43589619;4107.43589716;2630.76922737;-0.00000896;-0.00000896;3481.28204969;5448.46154104;3976.41025586;4207.94871788;4168.33333320;4272.82051289;4274.61538469;3941.92307630
3941.92307630;4366.28205156;3284.35897235;3646.02563978;3907.56410187;2598.46153499;-0.00000896;-0.00000896;3548.20512675;5481.92307957;3713.46153735;4207.05128199;3946.28205066;4272.30769238;4299.61538476;3941.92307630
3941.79487117;4338.07692329;3452.17948552;3648.33333209;4076.53846119;2599.74358627;-0.00000896;-0.00000896;3549.48717803;5486.41025905;3908.84615316;4208.71794865;4076.66666632;4270.00000007;4299.87179501;3941.92307630
3943.20512758;4337.05128226;3678.33333216;3677.30769113;4367.30769259;2597.69230422;-0.00000896;-0.00000896;3617.56410125;5483.33333598;4043.33333292;4235.76923077;4335.00000021;4268.58974366;4299.61538476;3942.05128143
3940.76923015;4334.61538483;3516.66666514;3676.02563985;4070.51282017;2631.02563762;-0.00000896;-0.00000896;3746.02563999;5481.66666931;4076.41025607;4207.56410250;4270.76923084;4268.97435905;4300.38461553;3942.05128143
3912.43589674;4333.33333355;3716.53846043;3649.23076798;4368.46153874;2691.53845828;-0.00000896;-0.00000896;3779.23076826;5455.64102822;4108.07692280;4234.87179488;4332.43589765;4267.43589751;4301.02564117;3909.10256341
3909.23076854;4336.53846175;3808.97435807;3646.15384491;4271.79487187;2726.28204809;-0.00000896;-0.00000896;3775.25640929;5484.61538726;4268.84615392;4236.79487180;4399.10256445;4239.74358975;4301.41025655;3909.10256341
3912.17948649;4365.64102592;3744.61538358;3644.10256286;4398.58974394;2699.35897110;-0.00000896;-0.00000896;3811.79487090;5487.69231034;4007.56410208;4208.33333327;4233.84615385;4240.00000000;4301.41025655;3909.10256341
3938.97435835;4367.82051310;3681.15384498;3614.35897304;4238.71794872;2693.58974033;-0.00000896;-0.00000896;3945.12820451;5552.43590022;4037.17948677;4235.38461539;4336.02564124;4238.46153847;4301.79487194;3941.92307630
3940.51281989;4366.28205156;3748.97435794;3614.87179356;4203.97435891;2633.07691968;-0.00000896;-0.00000896;4070.51282017;5581.15384901;3943.97435835;4235.25641026;4267.94871802;4238.20512821;4301.92307707;3941.92307630
3942.05128143;4365.38461567;3908.46153777;3644.10256286;4267.43589751;2632.30768891;-0.00000896;-0.00000896;4143.33333313;5619.48718241;4070.38461504;4235.38461539;4404.23076958;4235.12820513;4302.56410271;3941.92307630
3941.15384553;4336.02564124;3747.17948614;3647.30769106;4273.97435905;2630.38461198;-0.00000896;-0.00000896;4269.35897443;5647.94872094;3975.38461483;4234.23076923;4268.97435905;4234.10256411;4304.48717963;3941.92307630
3912.17948649;4306.41025655;3710.51281940;3649.74358850;4372.69230797;2628.97435557;-0.00000896;-0.00000896;4336.41025662;5679.87179793;4005.64102516;4208.97435891;4268.33333341;4234.35897436;4302.94871809;3909.10256341
3910.12820444;4301.41025655;3614.10256279;3683.58974241;4468.97435946;2600.76922730;-0.00000896;-0.00000896;4365.51282079;5717.69231082;3648.71794747;4208.97435891;3976.92307637;4207.69230763;4304.61538476;3909.23076854
3910.76923008;4270.00000007;3617.30769099;3714.35897325;4562.05128275;2567.43589390;229.99999153;-0.00000896;4433.84615427;5747.17949038;3678.20512703;4208.46153840;4202.94871788;4206.28205122;4303.58974373;3909.23076854
3911.02564033;4235.51282052;3482.94871635;3745.25640922;4438.46153888;2566.28204774;5.25640130;-0.00000896;4530.12820576;5777.30769558;3610.76922945;4208.46153840;4040.76923036;4205.51282045;4303.20512835;3909.23076854
3908.97435828;4173.46153833;3611.28204997;3777.17948621;4634.35897520;2600.76922730;36.15383726;-0.00000896;4562.56410326;5745.51282371;3678.07692190;4234.10256411;4435.76923119;4202.17948711;4302.30769245;3909.23076854
3908.46153777;4142.17948697;3582.56410118;3807.69230679;4502.94871851;2632.94871455;1.15383719;-0.00000896;4562.94871865;5716.02564416;3713.84615274;4235.25641026;4270.12820520;4203.07692301;4303.46153860;3909.35897367
3909.48717880;4137.17948697;3814.99999910;3840.38461455;4759.10256522;2627.56409916;229.99999153;-0.00000896;4598.33333410;5714.74359287;3814.87179397;4237.17948718;4465.12820562;4202.05128199;4303.58974373;3909.35897367
3910.38461469;4107.56410229;4466.66666716;3846.66666584;5254.87179703;2626.15384275;229.99999153;-0.00000896;4661.66666757;5684.23077229;4633.46153930;4234.74358975;5158.71795067;4175.51282038;4302.94871809;3909.35897367
3909.10256341;4105.12820485;4405.25641061;3877.82051206;5291.92307915;2595.76922730;229.99999153;-0.00000896;4697.17948816;5679.23077229;4470.89743639;4234.87179488;5120.12820701;4175.38461525;4302.94871809;3909.35897367
3907.17948649;4076.79487145;4497.69230825;3908.97435828;5384.74359218;2594.10256063;229.99999153;-0.00000896;4726.92307797;5679.74359280;4537.05128268;4235.00000000;5158.33333528;4175.89743576;4302.82051296;3909.35897367
3906.92307623;4075.25640991;4498.07692364;3910.89743521;5388.07692551;2561.28204774;229.99999153;-0.00000896;4700.12820610;5678.71795178;4533.97435960;4234.48717949;5088.71795053;4172.82051269;4301.15384630;3909.35897367
3908.58974290;4070.12820478;4337.82051303;3941.02564040;5222.56410465;2562.05127851;229.99999153;-0.00000896;4732.69230874;5650.89743889;4236.15384616;4235.76923077;4927.82051428;4170.89743576;4302.30769245;3909.48717880
3908.97435828;4040.51282010;4697.56410354;3972.82051227;5652.56410556;2563.71794518;229.99999153;-0.00000896;4792.94871913;5645.76923376;5912.94872150;4206.41025634;5450.25641283;4170.25641012;4301.79487194;3909.48717880
3907.56410187;4011.79487131;4893.84615524;3974.99999945;5746.28205448;2567.17948364;229.99999153;-0.00000896;4832.69230895;5645.25641325;5876.79487527;4208.07692301;5554.74359253;4171.92307679;4301.53846168;3909.48717880
3879.48717873;4008.71794824;4962.05128358;3976.15384560;5681.66666973;2528.84615024;229.99999153;-0.00000896;4891.92307832;5649.61538761;5880.76923425;4236.28205129;5452.05128463;4170.51282038;4299.74358989;3876.66666591
3874.61538385;4004.48717900;4992.43589904;4006.79487131;5810.38461872;2464.99999625;229.99999153;-0.00000896;4929.35897582;5648.71795171;5816.15384949;4234.48717949;5650.00000299;4169.10256397;4302.17948732;3876.66666591
3842.94871712;3973.58974304;4861.15384748;4038.46153805;5645.89743889;2436.66666285;229.99999153;-0.00000896;4961.02564256;5650.76923376;5750.64102884;4238.84615385;5288.33333556;4169.23076910;4300.00000014;3843.84615302
3810.76922987;3941.66666605;5290.89743812;4070.51282017;6078.07692697;2430.25640644;229.99999153;-0.00000896;4988.71795032;5650.51282350;6078.58974748;4234.87179488;5914.35897791;4142.17948697;4272.30769238;3811.15384525
