Gyro-X;Gyro-Z;AF3;Gyro-Y;T7;Acc-X;Pz;QualityData_1;QualityData_2;Acc-Z;Acc-Y;T8;Mag-X;AF4;Mag-Z;Mag-Y;Mag-X;Gyro-X 
4237.56410257;4041.66666625;4207.94871788;4234.10256411;4372.17948746;2104.48717497;229.99999153;-0.00000896;3484.10256251;4302.05128219;4169.74358961;4302.56410271;4039.10256369;4273.46153853;4173.71794858;4237.94871795
4237.43589744;4039.10256369;4077.56410222;4234.87179488;4464.23076972;2102.17948267;-0.00000896;-0.00000896;3512.43589591;4270.76923084;4438.07692350;4303.33333348;4234.35897436;4273.46153853;4173.07692294;4237.94871795
4237.30769231;4038.84615343;4168.84615371;4235.25641026;4435.89743632;2102.17948267;-0.00000896;-0.00000896;3517.17948565;4267.17948725;4266.66666674;4302.82051296;4266.66666674;4270.12820520;4171.66666653;4237.94871795
4208.97435891;4011.41025593;4202.43589737;4238.71794872;4502.17948774;2075.51281593;229.99999153;-0.00000896;3547.05128060;4237.69230770;4370.51282079;4301.66666681;4136.79487159;4272.30769238;4171.79487166;4205.12820506
4205.76923070;4006.53846106;4333.84615406;4240.89743590;4010.64102516;2102.17948267;-0.00000896;-0.00000896;3544.87179342;4205.64102558;4336.41025662;4303.84615399;4365.76923105;4270.38461546;4172.05128192;4205.12820506
4206.53846147;4004.35897388;4105.64102537;4267.82051289;4469.74359023;2103.97435446;-0.00000896;-0.00000896;3515.64102412;4204.10256404;4075.12820478;4301.53846168;3946.02564040;4270.76923084;4174.48717935;4205.12820506
4204.23076917;3977.69230714;4143.20512800;4269.87179495;4368.97435926;2106.66666215;-0.00000896;-0.00000896;3515.76922924;4172.82051269;4237.94871795;4304.10256425;4306.92307707;4270.38461546;4171.79487166;4205.12820506
4205.64102558;3973.97435842;4370.12820541;4271.92307700;4533.58974422;2106.15384164;-0.00000896;-0.00000896;3516.15384463;4138.58974339;4073.20512786;4304.61538476;4267.05128212;4270.12820520;4169.61538448;4205.12820506
4206.28205122;3946.53846092;4465.76923126;4274.48717956;4599.48718026;2104.61538010;-0.00000896;-0.00000896;3517.05128053;4077.17948684;4206.28205122;4306.53846168;4437.56410298;4272.43589751;4170.25641012;4205.12820506
4208.46153840;3943.46153784;4467.56410305;4304.48717963;4503.07692364;2134.23076479;-0.00000896;-0.00000896;3514.61538309;4044.23076882;4042.82051241;4301.66666681;4337.43589765;4272.43589751;4170.38461525;4205.12820506
4236.28205129;3943.71794810;4563.07692378;4332.94871816;4502.05128261;2169.23076486;-0.00000896;-0.00000896;3481.15384456;4011.28205080;4173.20512807;4303.07692322;4629.61538545;4271.79487187;4169.74358961;4238.07692308
4240.38461539;3943.20512758;4695.64102662;4332.82051303;4761.92307804;2201.41025211;-0.00000896;-0.00000896;3420.38461365;3977.82051227;3876.02564027;4304.23076937;4667.82051373;4272.69230777;4169.48717935;4238.07692308
4268.58974366;3944.74358912;4667.94871886;4305.64102578;4502.56410312;2206.41025211;-0.00000896;-0.00000896;3387.82051102;3941.53846092;4208.97435891;4304.23076937;4731.66666771;4273.58974366;4168.84615371;4270.76923084
4273.46153853;3946.53846092;4398.07692343;4300.64102578;4727.05128310;2203.20512390;-0.00000896;-0.00000896;3387.17948538;3879.35897360;4239.74358975;4302.56410271;4339.61538483;4272.17948725;4142.30769210;4270.76923084
4300.25641040;3976.02564047;4995.25641186;4301.15384630;4535.12820576;2199.99999570;-0.00000896;-0.00000896;3414.99999827;3843.84615302;4272.17948725;4303.97435912;4929.10256557;4271.41025648;4143.20512800;4303.58974373
4302.94871809;3979.10256355;4763.84615496;4300.00000014;4269.61538469;2233.58973935;-0.00000896;-0.00000896;3418.58974186;3809.10256320;4241.66666667;4304.61538476;4794.35897554;4272.17948725;4142.56410236;4303.58974373
4304.61538476;4007.56410208;4628.71794956;4274.23076930;4497.94871851;2264.61538045;-0.00000896;-0.00000896;3388.58974179;3747.05128101;4108.84615357;4302.05128219;4700.51282149;4271.92307700;4142.17948697;4303.58974373
4303.97435912;4039.61538420;4597.94871872;4270.51282059;4203.33333327;2265.76922660;-0.00000896;-0.00000896;3417.43589570;3747.82051178;4466.92307741;4302.69230784;4599.35897513;4271.53846161;4142.30769210;4303.58974373
4302.17948732;4072.56410222;4698.97435995;4240.64102564;4399.35897471;2234.74358551;-0.00000896;-0.00000896;3448.46153680;3714.23076812;4404.74359009;4303.20512835;4761.53846265;4273.84615392;4142.17948697;4303.58974373
4274.48717956;4105.25640998;4405.64102599;4237.43589744;4207.56410250;2206.28204698;-0.00000896;-0.00000896;3480.51281892;3711.53846043;4305.64102578;4304.87179501;4497.17948774;4273.46153853;4141.79487159;4270.76923084
4268.97435905;4135.64102544;4471.41025690;4238.20512821;4170.64102551;2205.25640595;-0.00000896;-0.00000896;3481.41025482;3682.05128087;4634.61538545;4303.71794886;4499.10256466;4273.97435905;4141.79487159;4270.76923084
4238.07692308;4169.74358961;4076.53846119;4234.35897436;4403.46153881;2173.07691870;-0.00000896;-0.00000896;3289.10256209;3715.89743479;4930.25641172;4303.97435912;4142.82051262;4273.33333341;4141.41025621;4237.94871795
4208.33333327;4204.48717942;4565.25641096;4175.12820499;4464.48717998;2336.28204726;-0.00000896;-0.00000896;3514.87179335;3709.74358864;5290.25641248;4304.10256425;4633.97435981;4274.61538469;4141.53846133;4204.99999993
4201.66666660;4238.07692308;4172.56410243;4201.92307686;4302.82051296;2135.64102120;-0.00000896;-0.00000896;3452.69230603;3782.05128108;5547.82051560;4303.20512835;4137.17948697;4273.20512828;4141.53846133;4205.12820506
4171.15384602;4240.00000000;4172.43589730;4174.99999986;4367.17948746;2199.23076493;-0.00000896;-0.00000896;3482.17948559;3809.35897346;5485.00000264;4304.61538476;4103.46153819;4273.07692315;4141.53846133;4172.17948704
4169.74358961;4269.61538469;4564.35897506;4203.97435891;4274.23076930;2167.05127768;-0.00000896;-0.00000896;3483.20512661;3840.64102481;5318.97436127;4303.46153860;4403.33333368;4273.07692315;4143.20512800;4172.30769217
4168.84615371;4269.10256418;4534.61538524;4204.61538455;4207.56410250;2141.41025197;-0.00000896;-0.00000896;3483.07692148;3874.23076847;4729.23077028;4303.97435912;4468.97435946;4272.43589751;4142.43589723;4172.30769217
4143.33333313;4269.61538469;4136.53846133;4205.38461532;4464.61538511;2168.84614947;-0.00000896;-0.00000896;3485.64102405;3879.99999924;4301.02564117;4305.00000014;4269.48717956;4271.28205136;4168.46153833;4139.48717928
4170.12820499;4269.74358982;4306.02564117;4206.28205122;4366.53846182;2166.41025204;-0.00000896;-0.00000896;3486.66666507;3913.20512751;4142.43589723;4302.82051296;4434.48717991;4273.20512828;4142.43589723;4172.30769217
4171.28205115;4270.76923084;4273.33333341;4207.69230763;4105.38461511;2141.02563658;229.99999153;-0.00000896;3482.56410097;3944.10256348;4208.33333327;4305.51282066;4168.20512807;4271.79487187;4143.07692287;4172.30769217
4172.94871781;4269.74358982;4729.10256515;4234.87179488;4464.87179536;2133.97435453;229.99999153;-0.00000896;3482.30769071;3941.15384553;3613.20512689;4304.87179501;4332.94871816;4271.15384623;4142.82051262;4172.30769217
4173.97435884;4241.92307693;4464.74359023;4237.82051282;4370.89743618;2103.58973908;229.99999153;-0.00000896;3483.20512661;3946.53846092;3743.58974255;4302.56410271;4207.69230763;4271.28205136;4140.51282031;4172.30769217
4173.46153833;4238.71794872;4404.10256445;4238.58974359;4534.74359037;2102.17948267;229.99999153;-0.00000896;3480.51281892;3976.79487124;3841.15384532;4304.87179501;4595.38461615;4273.07692315;4143.20512800;4172.30769217
4174.35897422;4236.02564103;4038.58974318;4240.64102564;4433.58974401;2105.89743138;-0.00000896;-0.00000896;3447.82051116;3971.79487124;4338.33333355;4305.76923091;4009.23076875;4274.74358982;4142.17948697;4172.30769217
4173.97435884;4208.46153840;4565.51282121;4240.38461539;4235.25641026;2137.30768786;2.05127309;-0.00000896;3417.17948545;3972.69230714;4400.00000035;4303.07692322;4695.76923175;4272.94871802;4143.20512800;4172.30769217
4174.61538448;4205.76923070;4338.33333355;4238.46153847;4301.53846168;2137.17948274;229.99999153;-0.00000896;3385.38461358;3943.58974297;4535.12820576;4304.48717963;4266.79487187;4272.56410264;4142.69230749;4172.30769217
4174.74358961;4203.58974352;4631.28205212;4236.41025641;4337.69230790;2104.23076472;2.05127309;-0.00000896;3385.25640845;3945.76923015;4498.58974415;4304.23076937;4339.48717970;4273.20512828;4142.94871774;4172.30769217
4201.15384609;4201.53846147;4304.87179501;4235.64102564;4270.25641033;2103.84614933;229.99999153;-0.00000896;3387.30769050;3946.02564040;4502.30769287;4304.10256425;4301.02564117;4271.66666674;4142.94871774;4205.12820506
4203.07692301;4174.61538448;4334.87179508;4234.23076923;4398.07692343;2135.89743145;2.05127309;-0.00000896;3384.74358794;3911.53846085;4370.00000028;4304.61538476;4240.51282052;4271.92307700;4140.25641005;4205.12820506
4204.23076917;4174.23076910;4135.76923056;4208.33333327;4499.74359030;2137.56409812;229.99999153;-0.00000896;3386.41025461;3907.82051213;4037.05128164;4302.17948732;4301.66666681;4273.33333341;4142.56410236;4205.12820506
4206.28205122;4173.07692294;4438.20512863;4207.56410250;4531.15384678;2137.94871351;2.05127309;-0.00000896;3415.51281878;3906.79487110;4237.43589744;4304.87179501;4438.07692350;4272.56410264;4142.94871774;4205.12820506
4209.10256404;4173.71794858;4402.94871830;4206.79487173;4464.35897485;2139.10255966;229.99999153;-0.00000896;3416.28204955;3877.30769155;4135.38461518;4306.41025655;4268.46153853;4272.17948725;4142.69230749;4205.12820506
4237.17948718;4174.23076910;4336.28205149;4208.33333327;4366.28205156;2166.15384178;2.05127309;-0.00000896;3420.12820339;3874.99999924;3877.69230693;4303.58974373;4108.97435870;4272.82051289;4141.02564082;4237.94871795
4239.35897436;4176.15384602;4202.56410250;4208.33333327;4435.89743632;2172.17948281;229.99999153;-0.00000896;3419.74358801;3847.05128122;3842.05128122;4274.74358982;4038.33333292;4274.48717956;4142.94871774;4237.94871795
4239.87179488;4203.46153840;4271.66666674;4207.69230763;4337.94871816;2173.97435460;2.05127309;-0.00000896;3449.99999834;3841.79487096;3742.56410153;4304.35897450;4371.66666695;4273.20512828;4170.12820499;4237.94871795
4239.87179488;4207.43589737;4565.00000070;4206.66666660;4435.76923119;2171.02563665;229.99999153;-0.00000896;3453.71794705;3845.64102481;3875.64102488;4306.53846168;4368.20512849;4274.10256418;4142.69230749;4237.94871795
4238.33333334;4208.58974352;4237.30769231;4207.05128199;4503.46153902;2139.87179043;2.05127309;-0.00000896;3482.30769071;3875.25640950;3845.76922994;4302.94871809;4141.79487159;4272.05128212;4168.58974345;4237.94871795
4236.41025641;4233.97435898;4435.64102606;4208.71794865;4006.15384567;2140.89743145;229.99999153;-0.00000896;3481.02563943;3874.10256334;3775.25640929;4305.12820527;4464.61538511;4272.30769238;4142.94871774;4237.94871795
4235.12820513;4235.64102564;4303.07692322;4234.35897436;4272.43589751;2170.89743152;2.05127309;-0.00000896;3453.07692141;3876.28205052;3779.23076826;4305.12820527;3971.28205073;4271.92307700;4142.69230749;4237.94871795
4234.35897436;4237.69230770;4366.28205156;4236.02564103;4271.28205136;2170.12820075;229.99999153;-0.00000896;3446.92307526;3880.89743514;4140.64102544;4304.48717963;4367.17948746;4271.15384623;4168.33333320;4237.94871795
4235.38461539;4239.61538462;4206.02564096;4234.10256411;4299.74358989;2170.51281614;2.05127309;-0.00000896;3448.46153680;3906.79487110;3845.25640943;4305.25641040;4108.58974332;4272.69230777;4143.46153826;4237.94871795
4208.97435891;4239.87179488;4176.02564089;4208.97435891;4241.92307693;2167.43589306;229.99999153;-0.00000896;3448.71794705;3907.82051213;4300.64102578;4306.02564117;3879.23076847;4272.30769238;4168.33333320;4205.12820506
4208.84615378;4240.00000000;4238.84615385;4209.10256404;3977.56410201;2138.58973915;2.05127309;-0.00000896;3450.38461372;3908.33333264;4234.87179488;4304.35897450;4300.89743604;4272.17948725;4168.20512807;4205.12820506
4208.07692301;4239.61538462;4337.30769252;4234.87179488;4333.46153867;2140.38461094;229.99999153;-0.00000896;3450.25640859;3910.12820444;4010.89743541;4302.30769245;4076.28205094;4272.69230777;4143.46153826;4205.12820506
4207.69230763;4240.51282052;4504.35897492;4234.23076923;4339.87179508;2139.10255966;2.05127309;-0.00000896;3447.17948552;3938.97435835;4071.92307658;4302.94871809;4536.53846217;4272.56410264;4168.20512807;4205.12820506
4207.56410250;4241.66666667;4201.28205122;4234.61538462;4469.74359023;2140.12820068;229.99999153;-0.00000896;3446.53845987;3940.64102502;3880.76923001;4304.61538476;4273.84615392;4273.71794879;4168.33333320;4205.12820506
4208.33333327;4241.92307693;4468.71794921;4208.97435891;4340.00000021;2138.46153402;2.05127309;-0.00000896;3449.87179321;3941.15384553;4004.87179439;4304.10256425;4436.28205170;4271.79487187;4143.20512800;4205.12820506
4208.07692301;4268.84615392;4138.20512800;4233.97435898;4435.12820555;2170.64102127;229.99999153;-0.00000896;3447.69230603;3940.25640963;3879.48717873;4301.66666681;4269.10256418;4272.94871802;4168.46153833;4205.12820506
4207.69230763;4271.15384623;4566.79487249;4207.69230763;4272.43589751;2171.79486742;2.05127309;-0.00000896;3447.05128039;3938.58974297;3844.87179404;4304.10256425;4436.53846196;4272.82051289;4168.58974345;4205.12820506
4207.17948711;4299.74358989;4110.38461511;4203.46153840;4466.02564152;2202.82050852;229.99999153;-0.00000896;3447.30769064;3940.25640963;3910.76923008;4304.48717963;4142.17948697;4273.33333341;4142.43589723;4205.12820506
4204.74358968;4305.38461553;4496.41025697;4176.02564089;4365.51282079;2198.97435467;2.05127309;-0.00000896;3450.38461372;3910.76923008;4037.56410215;4301.92307707;4534.23076986;4272.56410264;4142.69230749;4204.99999993
4201.92307686;4332.30769252;4240.25641026;4173.07692294;4238.07692308;2140.51281607;229.99999153;-0.00000896;3453.46153680;3913.07692239;4106.53846126;4305.12820527;4434.48717991;4271.02564110;4168.84615371;4204.99999993
4174.48717935;4334.35897457;4435.25641068;4173.84615371;4108.33333306;2137.43589299;37.69229880;-0.00000896;3482.05128046;3939.87179425;4203.58974352;4304.10256425;4536.15384678;4273.07692315;4168.84615371;4172.17948704
4172.17948704;4338.33333355;4466.15384664;4172.94871781;4401.28205163;2136.28204684;38.07691419;-0.00000896;3483.46153687;3945.38461476;3872.94871719;4305.00000014;4044.99999959;4273.58974366;4169.23076910;4172.17948704
4169.87179474;4365.12820541;4270.51282059;4175.76923063;4337.05128226;2133.33332889;-0.00000896;-0.00000896;3486.15384456;3976.41025586;3977.17948663;4304.10256425;4533.33333396;4272.05128212;4170.12820499;4172.17948704
4143.33333313;4367.94871823;4532.82051345;4201.41025634;4143.46153826;2106.66666215;229.99999153;-0.00000896;3513.07692155;4007.56410208;4172.05128192;4303.20512835;4369.87179515;4271.66666674;4170.64102551;4139.48717928
4140.12820492;4368.20512849;4365.89743618;4204.23076917;4403.84615420;2137.30768786;229.99999153;-0.00000896;3485.76922917;4008.20512772;4107.82051255;4305.25641040;4368.58974387;4273.46153853;4172.94871781;4139.48717928
4138.84615364;4372.43589772;4205.76923070;4204.10256404;4072.43589709;2167.82050845;229.99999153;-0.00000896;3480.89743430;4042.05128164;4037.43589702;4301.79487194;4139.23076903;4272.43589751;4171.02564089;4139.48717928
4137.94871774;4401.41025676;4372.69230797;4203.20512814;4471.28205177;2139.23076479;229.99999153;-0.00000896;3452.82051116;4075.51282017;3938.71794810;4304.61538476;4203.97435891;4270.64102571;4171.53846140;4139.48717928
4139.61538441;4403.71794907;4533.84615448;4204.10256404;4235.12820513;2105.25640574;-0.00000896;-0.00000896;3453.20512654;4104.35897408;4142.94871774;4304.10256425;4497.30769287;4271.66666674;4171.92307679;4139.48717928
4141.66666646;4403.71794907;4171.79487166;4206.66666660;4430.76923119;2042.82050817;-0.00000896;-0.00000896;3479.61538302;4139.99999980;4235.89743590;4305.00000014;4333.84615406;4271.66666674;4173.84615371;4139.48717928
4142.69230749;4402.05128240;4141.28205108;4237.17948718;4140.89743569;2067.82050824;-0.00000896;-0.00000896;3453.71794705;4172.94871781;4273.46153853;4302.94871809;4267.43589751;4272.43589751;4170.89743576;4139.48717928
4169.74358961;4399.48717984;4174.35897422;4238.07692308;4397.94871830;2101.53845703;-0.00000896;-0.00000896;3419.74358801;4203.97435891;4110.12820485;4305.00000014;4103.33333306;4271.15384623;4173.46153833;4172.30769217
4174.35897422;4371.15384644;4438.07692350;4237.56410257;4207.69230763;2102.69230318;-0.00000896;-0.00000896;3416.28204955;4236.28205129;4305.25641040;4302.94871809;4436.66666709;4270.12820520;4175.12820499;4172.30769217
4202.05128199;4370.00000028;4399.48717984;4237.05128206;4273.33333341;2105.51281600;-0.00000896;-0.00000896;3383.20512640;4208.84615378;4471.02564152;4302.56410271;4206.53846147;4271.66666674;4173.97435884;4205.12820506
4208.97435891;4367.94871823;4038.46153805;4235.25641026;4370.76923105;2106.28204677;-0.00000896;-0.00000896;3353.97435710;4241.79487180;4534.87179550;4303.46153860;4206.28205122;4272.69230777;4173.20512807;4205.12820506
4241.66666667;4367.30769259;4202.69230763;4208.33333327;4237.69230770;2104.35896985;-0.00000896;-0.00000896;3352.05128018;4272.05128212;4437.43589786;4301.15384630;4307.43589758;4271.79487187;4174.23076910;4237.94871795
4274.61538469;4365.64102592;4301.41025655;4234.48717949;4628.58974443;2075.76922619;-0.00000896;-0.00000896;3382.69230589;4274.35897443;4239.87179488;4301.41025655;4335.76923098;4271.92307700;4174.48717935;4270.76923084
4307.43589758;4336.66666688;4076.02564068;4233.97435898;4433.33333375;2041.79486714;-0.00000896;-0.00000896;3417.05128032;4274.35897443;4336.66666688;4299.48717963;4271.53846161;4270.38461546;4174.35897422;4303.58974373
4338.58974380;4304.35897450;4340.25641047;4236.15384616;4529.48718012;2036.02563637;-0.00000896;-0.00000896;3453.97435731;4300.76923091;4468.97435946;4302.30769245;3908.97435828;4272.30769238;4174.99999986;4336.41025662
4340.12820534;4273.33333341;4039.10256369;4237.17948718;3814.35897346;2039.23076458;-0.00000896;-0.00000896;3479.48717789;4272.82051289;4270.89743597;4302.69230784;4334.23076944;4271.92307700;4174.35897422;4336.41025662
4340.00000021;4268.46153853;4237.69230770;4236.53846154;4566.28205198;2074.87179029;-0.00000896;-0.00000896;3483.84615225;4269.61538469;4074.74358940;4302.17948732;4008.07692259;4271.53846161;4174.61538448;4336.41025662
4338.84615406;4238.97435898;4438.58974401;4236.66666667;4366.28205156;2103.33332882;-0.00000896;-0.00000896;3485.25640866;4268.46153853;4006.02564054;4300.00000014;4398.84615420;4270.38461546;4201.79487173;4336.41025662
4337.17948739;4237.17948718;4501.79487235;4235.51282052;4663.20512911;2073.33332875;-0.00000896;-0.00000896;3513.58974206;4267.69230777;3845.51281968;4302.82051296;4500.25641082;4272.69230777;4174.48717935;4336.41025662
4332.30769252;4235.51282052;4171.79487166;4236.53846154;4369.23076951;2068.58973901;-0.00000896;-0.00000896;3517.43589591;4270.25641033;3847.30769148;4304.61538476;4365.89743618;4271.92307700;4173.20512807;4336.41025662
4303.46153860;4207.69230763;4600.89743667;4236.28205129;4333.46153867;2073.71794414;-0.00000896;-0.00000896;3545.89743444;4240.64102564;3841.02564020;4301.92307707;4209.10256404;4271.92307700;4174.61538448;4303.58974373
4271.79487187;4204.87179481;4366.53846182;4236.66666667;4371.79487208;2070.38461080;-0.00000896;-0.00000896;3545.76922931;4240.51282052;3743.20512717;4302.94871809;4468.71794921;4272.56410264;4173.58974345;4270.76923084
4239.61538462;4202.94871788;4467.69230818;4237.69230770;4534.23076986;2072.05127747;-0.00000896;-0.00000896;3518.20512668;4235.25641026;3813.33333243;4303.71794886;4338.20512842;4270.76923084;4174.61538448;4237.94871795
4207.69230763;4201.66666660;4501.53846210;4239.61538462;4306.92307707;2074.87179029;-0.00000896;-0.00000896;3514.10256258;4233.97435898;3977.17948663;4302.05128219;4271.15384623;4273.20512828;4174.35897422;4205.12820506
4201.92307686;4202.30769224;4176.02564089;4237.94871795;4368.97435926;2102.17948267;-0.00000896;-0.00000896;3483.84615225;4239.61538462;3847.30769148;4301.02564117;4497.56410312;4272.30769238;4174.48717935;4205.12820506
4174.10256397;4201.28205122;4332.69230790;4239.35897436;4432.17948760;2103.58973908;-0.00000896;-0.00000896;3451.28204962;4234.35897436;3906.28205059;4274.61538469;4241.15384616;4271.28205136;4174.61538448;4172.30769217
4173.46153833;4175.38461525;4332.30769252;4240.12820513;4566.41025711;2075.25640567;-0.00000896;-0.00000896;3446.66666500;4238.97435898;3873.07692232;4303.33333348;4272.30769238;4271.92307700;4174.48717935;4172.30769217
4172.69230756;4175.38461525;4300.00000014;4240.00000000;4365.12820541;2101.92307241;-0.00000896;-0.00000896;3420.38461365;4240.76923077;4071.02564068;4302.82051296;4370.64102592;4273.46153853;4174.74358961;4172.30769217
4174.61538448;4173.46153833;4302.30769245;4239.61538462;4535.00000063;2104.61538010;229.99999153;-0.00000896;3418.71794698;4234.23076923;4007.69230721;4302.17948732;4137.30769210;4272.30769238;4174.61538448;4172.30769217
4201.92307686;4172.69230756;4470.64102613;4237.05128206;4303.84615399;2133.46153402;-0.00000896;-0.00000896;3419.23076750;4237.82051282;3979.35897381;4302.30769245;4496.92307748;4273.33333341;4174.35897422;4205.12820506
4203.58974352;4173.46153833;4235.51282052;4234.35897436;4503.20512876;2107.82050831;-0.00000896;-0.00000896;3446.28204962;4236.28205129;3976.02564047;4301.53846168;4332.82051303;4272.05128212;4173.58974345;4205.12820506
4203.07692301;4173.97435884;4204.99999993;4207.69230763;4468.20512870;2133.58973915;-0.00000896;-0.00000896;3447.69230603;4206.41025634;4109.35897408;4301.15384630;4338.97435919;4272.43589751;4174.74358961;4205.12820506
4204.35897429;4173.71794858;3943.20512758;4206.53846147;4469.10256459;2107.17948267;229.99999153;-0.00000896;3451.79487013;4203.71794865;3777.56410160;4303.20512835;4108.84615357;4273.07692315;4174.74358961;4205.12820506
4201.79487173;4174.35897422;4334.35897457;4205.64102558;4496.92307748;2105.12820062;229.99999153;-0.00000896;3481.53845994;4205.64102558;4334.35897457;4302.94871809;3940.76923015;4272.05128212;4175.38461525;4205.12820506
4176.28205115;4172.82051269;4075.51282017;4207.56410250;3778.58974262;2107.56409805;229.99999153;-0.00000896;3482.82051123;4205.12820506;4069.99999966;4299.87179501;4271.53846161;4272.30769238;4201.41025634;4172.30769217
4174.87179474;4173.84615371;4143.07692287;4207.82051275;4299.87179501;2106.02563651;229.99999153;-0.00000896;3484.61538302;4205.38461532;4399.61538497;4300.51282066;4176.02564089;4271.15384623;4174.61538448;4172.30769217
4172.94871781;4174.23076910;4399.35897471;4234.10256411;4272.05128212;2106.02563651;229.99999153;-0.00000896;3482.56410097;4203.33333327;4169.23076910;4302.05128219;4336.02564124;4272.05128212;4172.56410243;4172.30769217
4171.92307679;4174.10256397;4103.84615357;4208.71794865;4005.76923029;2075.12820055;229.99999153;-0.00000896;3481.15384456;4205.76923070;4273.71794879;4304.23076937;4401.92307727;4271.66666674;4174.87179474;4172.30769217
4173.07692294;4173.84615371;4272.82051289;4234.23076923;4401.28205163;2074.99999542;229.99999153;-0.00000896;3484.10256251;4207.17948711;4334.35897457;4301.02564117;4401.79487215;4273.07692315;4175.64102551;4172.30769217
4173.07692294;4172.30769217;4301.15384630;4236.92307693;4206.53846147;2135.12820068;229.99999153;-0.00000896;3483.84615225;4203.58974352;4365.38461567;4302.69230784;4236.53846154;4271.15384623;4174.10256397;4172.30769217
4173.20512807;4174.35897422;4496.53846210;4237.17948718;4104.10256383;2108.07691856;229.99999153;-0.00000896;3480.76922917;4205.64102558;4108.84615357;4302.56410271;4271.15384623;4271.28205136;4174.35897422;4172.30769217
4172.82051269;4175.25641012;4366.53846182;4238.07692308;4372.17948746;2105.25640574;229.99999153;-0.00000896;3481.92307533;4208.71794865;4172.69230756;4302.17948732;4203.33333327;4274.10256418;4172.56410243;4172.30769217
4172.56410243;4173.84615371;4568.07692378;4237.43589744;4531.02564165;2074.99999542;229.99999153;-0.00000896;3483.46153687;4204.87179481;4136.41025621;4301.28205142;4569.74359044;4271.15384623;4174.48717935;4172.30769217
4172.43589730;4173.97435884;4203.07692301;4237.56410257;4335.89743611;2071.53845696;229.99999153;-0.00000896;3483.46153687;4204.48717942;4365.64102592;4301.41025655;4202.82051275;4271.41025648;4174.61538448;4172.30769217
4170.38461525;4173.84615371;4208.97435891;4238.20512821;4371.15384644;2074.99999542;229.99999153;-0.00000896;3483.07692148;4208.20512814;4305.25641040;4301.53846168;4236.28205129;4273.97435905;4174.48717935;4172.30769217
4168.71794858;4174.10256397;4497.43589800;4240.89743590;4171.28205115;2106.28204677;229.99999153;-0.00000896;3453.46153680;4208.84615378;4206.02564096;4305.38461553;4566.02564172;4271.41025648;4201.28205122;4172.30769217
4143.33333313;4173.71794858;4433.20512863;4240.12820513;4273.97435905;2134.10255966;229.99999153;-0.00000896;3451.02563936;4209.10256404;4074.10256376;4300.89743604;4339.23076944;4272.30769238;4174.74358961;4139.48717928
4168.20512807;4174.61538448;4104.61538434;4239.74358975;4104.87179460;2106.66666215;229.99999153;-0.00000896;3448.07692141;4207.30769224;4206.53846147;4304.48717963;4299.74358989;4272.69230777;4172.82051269;4172.30769217
4168.84615371;4174.23076910;4398.97435933;4238.58974359;4400.64102599;2101.92307241;229.99999153;-0.00000896;3449.35897270;4238.33333334;4174.74358961;4303.97435912;4038.58974318;4274.61538469;4174.10256397;4172.30769217
4143.20512800;4173.84615371;4339.23076944;4239.23076923;4205.89743583;2102.17948267;229.99999153;-0.00000896;3450.51281885;4235.64102564;4171.53846140;4302.94871809;4497.30769287;4272.05128212;4174.61538448;4139.48717928
4169.23076910;4172.17948704;4235.51282052;4239.35897436;4402.43589779;2103.20512369;229.99999153;-0.00000896;3448.71794705;4239.48717949;4240.25641026;4304.87179501;4400.25641061;4272.69230777;4174.48717935;4172.30769217
4169.23076910;4172.17948704;4465.89743639;4238.84615385;4234.35897436;2102.30768779;229.99999153;-0.00000896;3447.30769064;4239.35897436;4169.61538448;4302.69230784;4465.00000049;4272.82051289;4174.23076910;4172.30769217
4169.35897422;4169.99999986;4205.64102558;4240.38461539;4628.84615468;2103.20512369;229.99999153;-0.00000896;3448.84615218;4238.97435898;4174.74358961;4302.82051296;4201.02564096;4272.94871802;4174.10256397;4172.30769217
4169.35897422;4142.82051262;4399.61538497;4239.10256411;4273.58974366;2074.99999542;229.99999153;-0.00000896;3447.43589577;4236.92307693;4007.82051234;4303.46153860;4303.58974373;4273.20512828;4174.99999986;4172.30769217
4168.46153833;4141.41025621;4239.87179488;4241.28205129;4371.79487208;2075.64102106;229.99999153;-0.00000896;3451.28204962;4235.00000000;4240.76923077;4302.56410271;4404.23076958;4272.17948725;4174.10256397;4172.30769217
4143.07692287;4139.35897415;4397.94871830;4266.66666674;4366.02564131;2103.58973908;229.99999153;-0.00000896;3480.12820353;4239.35897436;3814.87179397;4303.58974373;4137.69230749;4273.20512828;4174.35897422;4139.48717928
4141.28205108;4138.20512800;4366.53846182;4269.23076930;4269.10256418;2072.69230311;229.99999153;-0.00000896;3484.23076764;4238.71794872;4172.30769217;4301.41025655;4534.10256473;4271.66666674;4174.74358961;4139.48717928
4110.64102537;4136.28205108;4237.82051282;4271.53846161;4301.15384630;2069.74358516;229.99999153;-0.00000896;3515.76922924;4239.87179488;3973.07692252;4301.92307707;4235.76923077;4272.82051289;4174.48717935;4106.66666639
4104.10256383;4108.71794844;4366.79487208;4303.20512835;4334.35897457;2038.84614919;229.99999153;-0.00000896;3544.74358829;4241.53846154;3976.66666611;4302.56410271;4301.79487194;4273.07692315;4172.43589730;4106.66666639
4072.94871761;4104.61538434;4206.92307686;4307.05128219;4596.92307769;2039.35896971;229.99999153;-0.00000896;3515.64102412;4270.25641033;3810.38461449;4302.17948732;4302.56410271;4271.28205136;4174.23076910;4073.84615350
4042.17948677;4076.28205094;4530.25641089;4337.17948739;4398.33333368;2071.92307234;229.99999153;-0.00000896;3513.97435745;4272.69230777;4171.15384602;4303.07692322;4666.92307783;4270.64102571;4173.97435884;4041.15384574
4036.92307651;4072.82051248;4337.43589765;4368.20512849;4369.48717977;2105.38461087;229.99999153;-0.00000896;3479.99999841;4272.30769238;3877.17948642;4300.76923091;4103.46153819;4274.48717956;4173.71794858;4041.15384574
4007.05128157;4070.38461504;4435.64102606;4371.66666695;4238.58974359;2135.25640581;229.99999153;-0.00000896;3420.51281878;4299.61538476;3942.30769169;4303.07692322;4500.64102620;4273.33333341;4174.87179474;4008.33333285
3979.10256355;4041.79487138;4141.28205108;4372.43589772;4366.53846182;2134.74358530;229.99999153;-0.00000896;3415.38461365;4271.15384623;3776.66666570;4301.66666681;4107.94871767;4273.97435905;4174.10256397;3975.51281996
3976.28205073;4037.30769189;4498.07692364;4370.64102592;4401.66666702;2107.82050831;229.99999153;-0.00000896;3387.17948538;4267.69230777;3913.71794803;4301.28205142;4203.97435891;4273.97435905;4173.20512807;3975.51281996
3977.56410201;4007.82051234;4532.30769294;4370.38461567;4467.30769280;2104.48717497;-0.00000896;-0.00000896;3381.92307512;4240.51282052;3678.97435780;4302.43589758;4663.07692398;4274.61538469;4174.10256397;3975.51281996
3977.30769176;4005.76923029;4367.05128233;4372.05128233;4436.53846196;2134.87179043;-0.00000896;-0.00000896;3355.38461351;4240.12820513;3677.43589626;4302.69230784;3973.20512765;4274.23076930;4173.46153833;3975.51281996
4007.05128157;3977.17948663;4304.10256425;4400.64102599;4104.48717921;2141.15384171;229.99999153;-0.00000896;3317.56410062;4236.15384616;3615.64102432;4302.17948732;4404.23076958;4272.82051289;4173.46153833;4008.33333285
4011.41025593;3975.51281996;4102.69230742;4402.82051317;4239.10256411;2173.71794434;-0.00000896;-0.00000896;3283.71794671;4203.58974352;3647.30769106;4300.25641040;4008.20512772;4272.30769238;4172.56410243;4008.33333285
4040.76923036;3973.20512765;4273.97435905;4402.82051317;4307.05128219;2198.97435467;-0.00000896;-0.00000896;3256.15384407;4172.56410243;3976.92307637;4304.10256425;4336.92307714;4299.61538476;4172.56410243;4041.15384574
4071.02564068;3972.56410201;4732.43589848;4400.12820548;4170.64102551;2202.17948288;-0.00000896;-0.00000896;3252.30769023;4143.20512800;3938.71794810;4303.46153860;4336.92307714;4274.74358982;4172.43589730;4073.97435863
4074.99999966;3972.56410201;4108.97435870;4372.05128233;4339.10256431;2233.46153423;-0.00000896;-0.00000896;3249.99999792;4137.69230749;4007.05128157;4301.92307707;4042.69230728;4299.48717963;4171.92307679;4073.97435863
4103.97435870;3974.10256355;4077.56410222;4366.79487208;4274.74358982;2267.17948301;-0.00000896;-0.00000896;3251.02563894;4042.05128164;3812.17948628;4301.53846168;4332.82051303;4299.61538476;4171.79487166;4106.79487152
4110.25640998;3977.05128150;4504.10256466;4338.58974380;4104.61538434;2266.66666250;-0.00000896;-0.00000896;3251.41025433;4037.17948677;4169.48717935;4301.02564117;4434.48717991;4299.87179501;4173.33333320;4106.79487152
4137.56410236;4006.28205080;4107.94871767;4336.15384637;4332.82051303;2237.56409833;-0.00000896;-0.00000896;3250.64102356;4004.23076875;3880.25640950;4301.02564117;4105.51282024;4301.15384630;4169.99999986;4139.61538441
4140.38461518;4009.99999952;4468.07692357;4306.53846168;4597.82051359;2265.51281635;-0.00000896;-0.00000896;3221.92307477;4007.69230721;4338.58974380;4302.43589758;4635.51282135;4300.12820527;4171.15384602;4139.48717928
4142.94871774;4040.25640984;4466.02564152;4302.17948732;4366.66666695;2270.64102148;-0.00000896;-0.00000896;3190.51281829;3946.02564040;4469.61538511;4302.43589758;4302.94871809;4300.51282066;4171.15384602;4139.48717928
4168.84615371;4069.87179453;4499.74359030;4269.48717956;4306.41025655;2270.89743173;-0.00000896;-0.00000896;3184.74358752;3942.30769169;4467.69230818;4300.25641040;4503.07692364;4299.87179501;4170.64102551;4172.30769217
4172.05128192;4076.79487145;4436.28205170;4241.53846154;4272.94871802;2264.74358558;-0.00000896;-0.00000896;3185.25640804;3913.20512751;4529.87179550;4301.53846168;4371.92307720;4302.43589758;4170.12820499;4172.30769217
4174.87179474;4108.58974332;4662.17948809;4236.15384616;4274.10256418;2234.10255987;-0.00000896;-0.00000896;3189.99999778;3940.38461476;4332.56410278;4304.35897450;4336.79487201;4302.17948732;4169.99999986;4172.30769217
4201.15384609;4138.97435877;4471.41025690;4236.28205129;4633.58974443;2239.61538038;-0.00000896;-0.00000896;3218.84615170;3941.79487117;3975.12820458;4302.43589758;4470.51282100;4300.38461553;4169.99999986;4205.12820506
4202.56410250;4170.51282038;4699.23077021;4208.20512814;4467.30769280;2265.51281635;-0.00000896;-0.00000896;3191.66666445;3945.64102502;3579.99999861;4300.25641040;4628.84615468;4301.15384630;4170.12820499;4205.12820506
4205.25641019;4201.53846147;4664.61538552;4206.66666660;4562.30769301;2267.43589327;-0.00000896;-0.00000896;3218.20512605;3946.15384553;3743.33333229;4302.69230784;4397.94871830;4301.28205142;4169.99999986;4205.12820506
4206.15384609;4206.92307686;4732.43589848;4204.74358968;4399.74359009;2234.35897012;-0.00000896;-0.00000896;3221.53845939;3978.07692252;3419.35897263;4302.82051296;4404.10256445;4302.82051296;4169.61538448;4205.12820506
4206.02564096;4239.61538462;4602.56410333;4174.23076910;4565.76923147;2233.46153423;-0.00000896;-0.00000896;3250.25640818;4070.51282017;3742.69230665;4300.12820527;4765.64102676;4301.92307707;4169.99999986;4204.99999993
4206.53846147;4237.17948718;4498.33333389;4173.46153833;4536.28205191;2201.92307262;-0.00000896;-0.00000896;3288.84615183;4008.58974311;3939.61538399;4304.87179501;4600.51282128;4302.94871809;4171.41025628;4204.99999993
4205.51282045;4238.58974359;4569.35897506;4175.64102551;4204.87179481;2200.25640595;-0.00000896;-0.00000896;3283.20512619;4070.12820478;3940.38461476;4301.92307707;4564.23076993;4300.00000014;4170.38461525;4204.99999993
4208.33333327;4238.20512821;4503.20512876;4203.07692301;4171.79487166;2199.61538031;-0.00000896;-0.00000896;3315.89743396;4072.30769196;4072.56410222;4300.38461553;4565.51282121;4299.87179501;4143.46153826;4205.12820506
4208.97435891;4238.07692308;4463.97435946;4203.20512814;4039.35897395;2199.23076493;-0.00000896;-0.00000896;3347.94871608;4107.82051255;4306.15384630;4299.48717963;4596.53846231;4299.74358989;4169.99999986;4205.12820506
4207.82051275;4236.28205129;4732.43589848;4205.64102558;4370.12820541;2200.38461108;-0.00000896;-0.00000896;3351.02563915;4075.64102530;4272.82051289;4300.51282066;4565.25641096;4274.61538469;4171.92307679;4205.12820506
4207.94871788;4235.51282052;4497.43589800;4207.94871788;4400.89743625;2172.94871357;-0.00000896;-0.00000896;3352.56410069;4104.74358947;4300.64102578;4302.82051296;4438.84615427;4300.51282066;4170.38461525;4205.12820506
4205.51282045;4208.84615378;4399.61538497;4236.92307693;4402.17948753;2170.89743152;-0.00000896;-0.00000896;3382.30769050;4105.12820485;4037.82051241;4300.00000014;4497.05128261;4299.61538476;4170.25641012;4205.12820506
4204.10256404;4206.15384609;4040.51282010;4239.87179488;4465.89743639;2173.58973922;-0.00000896;-0.00000896;3348.46153659;4105.76923050;3906.15384546;4303.07692322;4306.41025655;4299.61538476;4170.51282038;4205.12820506
4204.10256404;4202.30769224;4467.43589793;4268.07692315;4366.02564131;2198.97435467;229.99999153;-0.00000896;3321.79486985;4108.58974332;4010.89743541;4299.87179501;4563.97435967;4299.48717963;4170.12820499;4205.12820506
4203.20512814;4175.12820499;4305.76923091;4269.10256418;4107.82051255;2206.02563672;229.99999153;-0.00000896;3287.82051081;4103.97435870;4073.97435863;4299.74358989;4109.10256383;4301.15384630;4170.25641012;4205.12820506
4202.43589737;4172.30769217;4301.53846168;4267.17948725;4403.07692343;2205.89743159;229.99999153;-0.00000896;3223.71794657;4072.94871761;4007.43589695;4301.53846168;4174.99999986;4300.89743604;4170.76923063;4205.12820506
4205.89743583;4172.43589730;4175.89743576;4241.02564103;4239.48717949;2204.74358544;229.99999153;-0.00000896;3217.56410041;4069.74358940;4207.43589737;4303.71794886;4302.43589758;4301.41025655;4170.64102551;4205.12820506
4208.84615378;4173.20512807;4468.33333382;4238.84615385;4267.30769238;2199.35897005;0.76922181;-0.00000896;3220.12820298;4040.38461497;3781.15384518;4299.61538476;4037.94871754;4300.12820527;4170.25641012;4205.12820506
4234.48717949;4173.20512807;4207.05128199;4240.38461539;4142.94871774;2173.46153409;5.38460642;-0.00000896;3250.25640818;4042.94871754;4534.74359037;4303.71794886;4469.23076972;4300.76923091;4168.71794858;4237.94871795
4233.97435898;4174.35897422;4300.51282066;4240.12820513;4403.58974394;2174.23076486;229.99999153;-0.00000896;3220.51281836;4038.33333292;4076.92307658;4302.56410271;3909.23076854;4300.51282066;4170.51282038;4237.94871795
4209.10256404;4174.23076910;4307.05128219;4238.58974359;4172.56410243;2203.71794441;5.38460642;-0.00000896;3217.69230554;4009.87179439;4241.53846154;4301.41025655;4432.56410298;4302.69230784;4170.38461525;4205.12820506
4234.10256411;4175.51282038;4142.17948697;4235.38461539;4300.12820527;2232.94871371;229.99999153;-0.00000896;3216.92307477;4010.51282003;4040.25640984;4302.56410271;4007.94871747;4302.05128219;4170.38461525;4237.94871795
4207.30769224;4201.15384609;4464.10256459;4208.58974352;4074.48717914;2205.89743159;5.38460642;-0.00000896;3191.02563881;4009.61538413;4235.25641026;4302.69230784;4568.84615454;4300.25641040;4170.12820499;4205.12820506
4207.69230763;4201.41025634;4372.30769259;4206.28205122;4402.30769266;2201.15384185;229.99999153;-0.00000896;3250.25640818;4008.20512772;4234.10256411;4302.43589758;4267.82051289;4300.12820527;4170.76923063;4205.12820506
4206.53846147;4201.15384609;4109.23076896;4208.84615378;4267.43589751;2171.41025204;5.38460642;-0.00000896;3257.30769023;4011.41025593;4202.82051275;4303.20512835;4366.28205156;4302.30769245;4171.15384602;4205.12820506
4202.56410250;4201.53846147;3940.76923015;4235.76923077;4268.07692315;2199.35897005;229.99999153;-0.00000896;3288.33333132;4012.05128157;4335.00000021;4301.28205142;4072.43589709;4300.12820527;4170.25641012;4205.12820506
4174.87179474;4201.41025634;4141.92307672;4237.56410257;4399.74359009;2204.61538031;5.38460642;-0.00000896;3287.30769030;4012.05128157;3842.69230686;4300.12820527;4044.35897395;4300.25641040;4172.56410243;4172.30769217
4168.71794858;4203.71794865;4203.07692301;4235.12820513;4267.30769238;2232.17948294;229.99999153;-0.00000896;3289.10256209;4039.74358933;4304.74358989;4302.43589758;4405.76923112;4301.41025655;4169.87179474;4172.30769217
4141.41025621;4202.17948711;4240.64102564;4209.10256404;4566.53846224;2206.66666236;5.38460642;-0.00000896;3285.51281850;4041.41025600;4042.05128164;4302.69230784;3973.33333278;4299.48717963;4170.76923063;4139.48717928
4139.99999980;4202.56410250;4435.00000042;4235.64102564;4332.94871816;2203.58973929;229.99999153;-0.00000896;3255.89743382;4069.99999966;4205.51282045;4300.89743604;4432.05128247;4274.10256418;4169.48717935;4139.48717928
4138.84615364;4201.79487173;4204.35897429;4236.02564103;4405.12820548;2233.84614961;5.38460642;-0.00000896;3254.87179279;4073.58974325;4040.51282010;4301.02564117;4300.38461553;4274.61538469;4170.64102551;4139.48717928
4137.56410236;4176.15384602;4004.10256362;4236.41025641;4234.48717949;2205.25640595;229.99999153;-0.00000896;3221.66666452;4070.25640991;4236.92307693;4301.41025655;4270.64102571;4301.66666681;4170.64102551;4139.48717928
4137.94871774;4174.87179474;3905.89743521;4235.00000000;4433.58974401;2200.76922646;5.38460642;-0.00000896;3220.76922862;4070.25640991;3841.15384532;4302.17948732;4039.87179446;4299.48717963;4170.38461525;4139.48717928
4139.74358954;4172.17948704;4270.38461546;4234.61538462;4436.92307734;2200.89743159;229.99999153;-0.00000896;3218.71794657;4044.87179446;4300.76923091;4302.05128219;4405.00000035;4302.05128219;4171.66666653;4139.48717928
4141.53846133;4171.79487166;4233.84615385;4208.97435891;4273.58974366;2200.38461108;5.38460642;-0.00000896;3218.20512605;4074.23076889;4206.66666660;4302.43589758;4234.10256411;4301.02564117;4170.25641012;4139.48717928
4142.43589723;4170.76923063;4532.17948781;4234.74358975;4335.64102585;2199.74358544;229.99999153;-0.00000896;3224.35897221;4071.15384581;4038.07692266;4301.41025655;4268.07692315;4300.89743604;4170.51282038;4139.48717928
4143.20512800;4170.12820499;4337.17948739;4234.48717949;4403.71794907;2201.53845723;5.38460642;-0.00000896;3219.99999785;4074.99999966;3946.15384553;4303.84615399;4372.56410285;4300.76923091;4171.02564089;4139.48717928
4169.10256397;4143.07692287;4599.23077000;4235.25641026;4240.12820513;2206.28204698;229.99999153;-0.00000896;3217.94871580;4069.74358940;4205.76923070;4304.87179501;4726.15384720;4273.71794879;4170.89743576;4172.30769217
4169.48717935;4168.20512807;4240.89743590;4208.71794865;4370.25641054;2233.46153423;5.38460642;-0.00000896;3189.10256188;4071.15384581;4174.87179474;4301.53846168;4044.99999959;4300.25641040;4169.99999986;4172.30769217
4171.15384602;4168.58974345;4044.10256369;4203.84615378;4204.87179481;2206.79486749;229.99999153;-0.00000896;3216.53845939;4040.89743548;4071.53846119;4303.20512835;4497.69230825;4273.46153853;4170.89743576;4172.30769217
4172.43589730;4169.61538448;4434.35897478;4205.25641019;4266.66666674;2202.17948288;5.38460642;-0.00000896;3222.17948503;4037.82051241;4074.61538427;4301.79487194;4236.92307693;4300.12820527;4143.46153826;4172.30769217
4173.97435884;4169.23076910;4304.10256425;4203.20512814;4403.20512856;2173.07691870;229.99999153;-0.00000896;3253.71794664;4011.92307644;4176.28205115;4303.71794886;4270.12820520;4299.48717963;4170.12820499;4172.30769217
4173.58974345;4169.99999986;4537.05128268;4206.02564096;4366.66666695;2201.15384185;5.38460642;-0.00000896;3257.05127997;4040.12820472;4138.58974339;4301.66666681;4141.02564082;4274.74358982;4171.53846140;4172.30769217
4203.97435891;4201.92307686;4204.61538455;4236.79487180;4502.17948774;2234.23076500;0.25640130;-0.00000896;3250.76922869;4010.76923029;4235.12820513;4303.71794886;4273.20512828;4273.97435905;4170.51282038;4205.12820506
4205.51282045;4202.94871788;4504.23076979;4237.56410257;4140.89743569;2232.05127782;0.38460642;-0.00000896;3255.12820305;4038.07692266;4271.41025648;4301.28205142;4337.56410278;4274.23076930;4170.12820499;4205.12820506
4205.64102558;4203.46153840;4269.87179495;4238.20512821;4269.61538469;2206.79486749;229.99999153;-0.00000896;3252.43589536;4038.46153805;4234.10256411;4300.51282066;4501.28205184;4301.15384630;4170.12820499;4205.12820506
4206.53846147;4204.74358968;4792.94871913;4238.46153847;4201.02564096;2232.30768807;229.99999153;-0.00000896;3252.17948510;4041.15384574;4303.33333348;4304.10256425;4667.69230860;4300.12820527;4170.38461525;4205.12820506
4206.28205122;4206.28205122;4070.51282017;4238.58974359;4532.82051345;2202.56409826;229.99999153;-0.00000896;3254.99999792;4042.69230728;3782.30769134;4300.38461553;4136.53846133;4300.64102578;4170.76923063;4205.12820506
4203.84615378;4206.28205122;4569.23076993;4237.05128206;4366.53846182;2202.05127775;229.99999153;-0.00000896;3253.07692100;4070.25640991;4139.74358954;4302.56410271;4500.64102620;4301.15384630;4170.51282038;4205.12820506
4204.61538455;4204.23076917;4334.23076944;4236.41025641;4301.79487194;2202.56409826;-0.00000896;-0.00000896;3252.82051074;4043.33333292;4077.43589709;4300.51282066;4537.30769294;4300.76923091;4170.25641012;4205.12820506
4204.35897429;4204.61538455;4529.87179550;4238.20512821;4235.12820513;2201.41025211;-0.00000896;-0.00000896;3254.61538253;4074.23076889;4107.94871767;4302.43589758;4532.43589807;4274.35897443;4170.38461525;4205.12820506
4207.94871788;4203.20512814;4469.10256459;4240.51282052;4563.33333403;2233.84614961;-0.00000896;-0.00000896;3224.35897221;4043.84615343;4271.15384623;4304.23076937;4435.25641068;4274.74358982;4171.28205115;4205.12820506
4234.74358975;4203.58974352;4464.10256459;4241.41025641;4206.66666660;2232.94871371;-0.00000896;-0.00000896;3224.48717734;4070.38461504;4201.41025634;4302.05128219;4173.46153833;4300.12820527;4170.51282038;4237.94871795
4235.64102564;4203.07692301;4241.15384616;4266.66666674;4436.28205170;2200.12820082;-0.00000896;-0.00000896;3254.10256202;4043.46153805;4240.00000000;4302.30769245;4207.69230763;4299.48717963;4170.25641012;4237.94871795
4208.20512814;4202.69230763;4464.23076972;4240.25641026;4234.23076923;2171.66666229;-0.00000896;-0.00000896;3257.30769023;4075.12820478;4103.58974332;4302.56410271;4400.25641061;4299.61538476;4170.64102551;4205.12820506
4204.23076917;4202.69230763;4334.61538483;4240.76923077;4305.51282066;2173.84614947;-0.00000896;-0.00000896;3288.97435696;4070.76923043;4004.35897388;4301.02564117;4367.82051310;4299.87179501;4170.51282038;4205.12820506
4175.64102551;4175.51282038;4668.33333424;4241.79487180;4438.46153888;2201.15384185;-0.00000896;-0.00000896;3285.51281850;4070.76923043;4175.12820499;4302.43589758;4595.12820590;4301.02564117;4170.12820499;4172.30769217
4174.10256397;4175.89743576;4207.05128199;4267.30769238;4238.33333334;2201.92307262;-0.00000896;-0.00000896;3284.61538260;4077.30769196;3976.15384560;4302.69230784;4073.46153812;4301.41025655;4168.97435884;4172.30769217
4171.28205115;4201.53846147;4400.76923112;4269.87179495;4011.79487131;2202.17948288;-0.00000896;-0.00000896;3286.66666466;4075.64102530;4270.64102571;4302.43589758;4401.53846189;4301.41025655;4171.02564089;4172.30769217
4169.35897422;4175.51282038;4011.15384567;4270.25641033;4237.69230770;2199.99999570;-0.00000896;-0.00000896;3283.33333132;4077.05128171;4335.64102585;4303.71794886;4041.92307651;4300.51282066;4170.12820499;4172.30769217
4169.10256397;4174.87179474;4104.99999973;4272.30769238;4174.61538448;2199.74358544;-0.00000896;-0.00000896;3282.56410055;4075.89743555;3978.07692252;4301.02564117;3874.99999924;4300.00000014;4168.97435884;4172.30769217
4168.84615371;4174.10256397;4401.66666702;4272.05128212;4171.41025628;2206.15384185;-0.00000896;-0.00000896;3253.46153638;4103.97435870;4401.02564138;4300.76923091;4070.76923043;4300.12820527;4170.12820499;4172.30769217
4170.12820499;4173.71794858;4697.94871893;4272.82051289;4104.87179460;2234.35897012;-0.00000896;-0.00000896;3219.87179272;4074.35897402;3912.69230700;4301.53846168;4206.53846147;4300.51282066;4169.10256397;4172.30769217
4172.69230756;4173.07692294;4469.23076972;4270.12820520;4070.64102530;2235.76922653;-0.00000896;-0.00000896;3188.71794650;4071.28205094;4136.41025621;4301.28205142;4335.00000021;4301.15384630;4170.25641012;4172.30769217
4175.76923063;4174.48717935;4207.17948711;4270.12820520;4336.41025662;2239.35897012;-0.00000896;-0.00000896;3158.07692079;4069.99999966;4169.48717935;4302.94871809;4040.51282010;4301.53846168;4170.64102551;4172.30769217
4206.15384609;4201.28205122;4568.07692378;4268.71794879;4238.46153847;2237.43589320;-0.00000896;-0.00000896;3158.46153617;4042.30769189;4300.89743604;4302.69230784;4239.10256411;4300.64102578;4170.25641012;4205.12820506
4236.92307693;4201.41025634;4272.30769238;4269.48717956;4431.41025683;2203.20512390;-0.00000896;-0.00000896;3183.84615163;4036.92307651;4170.12820499;4302.05128219;4437.94871837;4300.64102578;4170.51282038;4237.94871795
4267.05128212;4202.17948711;4432.17948760;4270.12820520;4369.48717977;2267.94871378;-0.00000896;-0.00000896;3157.56410027;3978.33333278;4333.71794893;4303.33333348;4273.20512828;4301.02564117;4170.51282038;4270.76923084
4272.56410264;4205.38461532;4208.20512814;4266.92307700;4170.51282038;2297.56409847;-0.00000896;-0.00000896;3092.17948475;3974.10256355;4302.17948732;4302.94871809;4040.38461497;4299.61538476;4169.99999986;4270.76923084
4302.43589758;4234.10256411;4464.23076972;4240.89743590;4240.51282052;2268.33332917;-0.00000896;-0.00000896;3088.71794629;3971.53846099;4041.66666625;4301.66666681;4236.15384616;4300.00000014;4169.10256397;4303.58974373
4334.74358996;4239.87179488;4365.38461567;4236.92307693;4470.25641075;2237.56409833;-0.00000896;-0.00000896;3119.23076687;3945.64102502;4107.94871767;4301.92307707;4432.69230811;4302.43589758;4169.87179474;4336.41025662
4339.10256431;4266.66666674;4304.74358989;4234.23076923;4300.25641040;2265.25640609;-0.00000896;-0.00000896;3150.76922848;3942.69230707;4431.92307734;4301.66666681;4339.35897457;4302.05128219;4170.38461525;4336.41025662
4369.35897464;4269.10256418;3748.07692204;4208.71794865;4138.97435877;2269.10255994;-0.00000896;-0.00000896;3118.20512585;3941.02564040;4207.43589737;4274.61538469;4105.64102537;4300.38461553;4169.99999986;4369.23076951
4372.69230797;4272.05128212;4333.20512842;4206.53846147;4366.41025669;2269.87179071;229.99999153;-0.00000896;3121.53845918;3939.10256348;4336.92307714;4303.20512835;3873.58974283;4299.87179501;4170.25641012;4369.23076951
4402.30769266;4299.48717963;4365.12820541;4204.23076917;4107.30769203;2269.23076507;0.76922181;-0.00000896;3153.97435669;3940.51281989;4463.84615434;4302.56410271;4332.43589765;4301.66666681;4170.12820499;4402.05128240
4405.51282086;4302.82051296;4135.51282031;4202.17948711;4435.89743632;2238.84614961;-0.00000896;-0.00000896;3188.07692086;3943.20512758;4139.10256390;4302.05128219;4043.20512779;4302.94871809;4169.48717935;4402.05128240
4432.05128247;4305.76923091;4732.82051387;4176.28205115;4468.46153895;2238.46153423;-0.00000896;-0.00000896;3221.15384400;3973.20512765;4534.23076986;4301.41025655;4599.48718026;4301.41025655;4169.99999986;4434.74359016
4432.56410298;4332.69230790;4206.02564096;4201.15384609;4368.71794900;2268.71794455;229.99999153;-0.00000896;3253.71794664;3978.84615329;4698.33333431;4301.15384630;4337.94871816;4302.05128219;4169.10256397;4434.87179529
4432.82051324;4334.87179508;4338.84615406;4174.23076910;4109.87179460;2268.97435481;229.99999153;-0.00000896;3282.17948517;4009.35897388;4996.66666827;4301.53846168;4336.92307714;4302.30769245;4170.12820499;4434.74359016
4432.30769273;4338.20512842;4497.30769287;4172.30769217;4269.10256418;2301.28204719;229.99999153;-0.00000896;3256.41025433;4069.99999966;4730.25641130;4302.43589758;4138.33333313;4304.74358989;4171.02564089;4434.74359016
4433.84615427;4367.05128233;4371.28205156;4172.17948704;4307.17948732;2297.43589334;229.99999153;-0.00000896;3257.30769023;4072.05128171;5022.82051449;4301.66666681;4536.92307755;4303.20512835;4170.51282038;4434.74359016
4433.33333375;4371.92307720;4267.82051289;4171.41025628;4336.41025662;2268.46153430;229.99999153;-0.00000896;3255.64102356;4104.74358947;5060.12820687;4300.89743604;4038.20512779;4301.66666681;4170.76923063;4434.74359016
4433.33333375;4399.87179522;4337.56410278;4174.74358961;4109.23076896;2236.28204705;229.99999153;-0.00000896;3255.64102356;4135.76923056;5160.00000195;4274.74358982;4534.74359037;4302.82051296;4169.10256397;4434.74359016
4431.79487222;4401.79487215;4174.61538448;4176.28205115;3874.61538385;2232.82050859;229.99999153;-0.00000896;3285.12820312;4143.07692287;5226.53846363;4299.87179501;4043.07692266;4302.43589758;4171.41025628;4434.74359016
4404.87179522;4405.38461574;4270.89743597;4202.94871788;4340.00000021;2235.25640602;229.99999153;-0.00000896;3282.05128004;4168.71794858;5126.15384803;4301.53846168;4208.33333327;4303.33333348;4171.02564089;4402.05128240
4403.58974394;4403.07692343;4503.71794928;4202.56410250;3942.82051220;2232.30768807;229.99999153;-0.00000896;3253.97435689;4142.43589723;5225.12820722;4302.30769245;4371.66666695;4301.15384630;4171.53846140;4402.05128240
4402.05128240;4401.79487215;3873.46153770;4202.05128199;4239.48717949;2206.79486749;229.99999153;-0.00000896;3250.89743382;4170.51282038;5191.53846356;4301.53846168;3747.94871691;4301.41025655;4172.05128192;4402.05128240
4400.89743625;4401.79487215;4273.20512828;4175.38461525;3814.74358884;2205.64102134;229.99999153;-0.00000896;3219.35897221;4170.25641012;4927.43589890;4301.02564117;3973.20512765;4300.00000014;4171.53846140;4401.92307727
4402.56410292;4400.51282086;4073.58974325;4175.12820499;4007.17948670;2171.92307255;229.99999153;-0.00000896;3222.69230554;4174.23076910;4731.92307797;4302.05128219;3972.43589688;4302.17948732;4170.64102551;4401.92307727
4405.76923112;4400.89743625;4267.56410264;4176.15384602;4174.87179474;2141.41025197;229.99999153;-0.00000896;3224.35897221;4206.41025634;4468.20512870;4300.25641040;4104.99999973;4301.92307707;4172.17948704;4401.92307727
4433.20512863;4398.46153881;4103.33333306;4203.46153840;4233.84615385;2134.35896992;229.99999153;-0.00000896;3250.64102356;4176.02564089;4500.51282107;4301.15384630;4039.23076882;4302.05128219;4173.71794858;4434.87179529
4435.64102606;4369.23076951;3976.66666611;4204.35897429;3811.02564013;2104.10255959;229.99999153;-0.00000896;3252.94871587;4176.28205115;4306.28205142;4303.20512835;4203.71794865;4301.66666681;4172.30769217;4434.87179529
4433.71794914;4338.84615406;4271.79487187;4204.87179481;4304.87179501;2103.84614933;229.99999153;-0.00000896;3254.10256202;4174.23076910;3974.74358919;4302.17948732;4169.61538448;4301.28205142;4172.82051269;4434.87179529
4433.33333375;4332.69230790;4369.87179515;4206.15384609;4037.69230728;2104.35896985;229.99999153;-0.00000896;3255.51281843;4201.79487173;4142.82051262;4301.15384630;4529.35897499;4301.02564117;4172.43589730;4434.87179529
4431.15384657;4305.25641040;4438.33333375;4205.38461532;4368.33333362;2133.33332889;229.99999153;-0.00000896;3283.97435696;4201.66666660;3709.10256299;4302.56410271;4173.71794858;4300.64102578;4172.56410243;4434.87179529
4404.35897471;4300.64102578;4565.51282121;4207.17948711;4339.35897457;2107.30768779;229.99999153;-0.00000896;3285.64102363;4169.87179474;3809.87179397;4302.05128219;4504.10256466;4301.66666681;4172.82051269;4402.05128240
4401.66666702;4273.84615392;4336.28205149;4208.71794865;4110.25640998;2139.35896992;229.99999153;-0.00000896;3285.76922876;4168.46153833;3747.30769127;4301.79487194;4334.10256431;4301.53846168;4172.05128192;4402.05128240
4372.30769259;4273.20512828;4401.15384651;4234.10256411;4010.51282003;2170.89743152;229.99999153;-0.00000896;3282.69230568;4137.94871774;3845.12820430;4301.41025655;4368.71794900;4299.48717963;4172.69230756;4369.23076951
4369.61538490;4273.20512828;4302.56410271;4208.58974352;4241.02564103;2170.89743152;229.99999153;-0.00000896;3285.38461337;4140.12820492;3546.02563957;4300.76923091;4140.12820492;4301.79487194;4172.94871781;4369.23076951
4367.56410285;4273.07692315;4437.69230811;4233.97435898;4367.30769259;2168.33332896;229.99999153;-0.00000896;3287.56410055;4141.41025621;3708.71794761;4301.41025655;4733.58974464;4302.17948732;4172.94871781;4369.23076951
4366.79487208;4271.79487187;4466.28205177;4208.71794865;4202.17948711;2141.02563658;229.99999153;-0.00000896;3289.35897235;4169.87179474;4141.28205108;4299.48717963;4075.51282017;4302.30769245;4171.92307679;4369.23076951
4366.92307720;4270.12820520;4471.41025690;4235.12820513;4040.12820472;2167.94871357;229.99999153;-0.00000896;3316.92307498;4169.61538448;3873.33333257;4302.56410271;4269.61538469;4302.30769245;4171.92307679;4369.23076951
4365.89743618;4241.53846154;4400.00000035;4235.51282052;4071.15384581;2167.17948281;229.99999153;-0.00000896;3348.84615197;4138.71794851;4008.97435849;4301.02564117;4172.30769217;4301.02564117;4172.30769217;4369.23076951
4339.35897457;4238.97435898;4598.71794949;4209.10256404;4305.12820527;2167.69230332;229.99999153;-0.00000896;3322.05128011;4168.97435884;3875.25640950;4300.64102578;4693.84615482;4300.00000014;4171.53846140;4336.41025662
4336.92307714;4235.25641026;4438.07692350;4234.48717949;3910.64102495;2199.48717518;229.99999153;-0.00000896;3322.43589549;4142.17948697;4041.02564061;4301.53846168;4435.64102606;4299.48717963;4172.56410243;4336.41025662
4336.15384637;4235.64102564;4041.02564061;4208.84615378;4074.74358940;2233.46153423;229.99999153;-0.00000896;3320.64102370;4139.35897415;4108.84615357;4301.79487194;3906.53846085;4302.69230784;4172.43589730;4336.41025662
4335.38461560;4236.79487180;4435.64102606;4235.12820513;4072.43589709;2202.56409826;229.99999153;-0.00000896;3349.23076736;4137.05128185;3875.64102488;4301.79487194;4468.71794921;4301.41025655;4173.20512807;4336.41025662
4333.07692329;4236.41025641;4595.64102641;4237.69230770;4403.33333368;2199.10255980;229.99999153;-0.00000896;3349.87179300;4136.79487159;4172.30769217;4300.25641040;4563.71794942;4301.41025655;4172.05128192;4336.41025662
4332.43589765;4235.25641026;5777.69231096;4237.69230770;5221.28205337;2167.05127768;229.99999153;-0.00000896;3351.28204941;4110.51282024;3383.33333153;4299.74358989;5717.56410569;4302.05128219;4173.20512807;4336.41025662
4303.46153860;4208.84615378;4962.82051435;4237.43589744;3219.74358759;2141.02563658;229.99999153;-0.00000896;3352.43589556;4135.76923056;3676.28205010;4301.66666681;4766.41025753;4300.76923091;4172.17948704;4303.58974373
4301.02564117;4206.66666660;4694.61538559;4238.58974359;3650.51281927;2137.30768786;6.66665771;-0.00000896;3352.82051095;4108.33333306;3845.51281968;4301.66666681;4470.38461587;4303.20512835;4172.56410243;4303.58974373
4272.30769238;4205.25641019;4929.74359121;4237.94871795;3648.46153721;2168.58973922;34.23076034;-0.00000896;3350.76922890;4140.25641005;3649.74358850;4274.74358982;4695.51282149;4301.79487194;4172.56410243;4270.76923084
4268.71794879;4203.58974352;4925.64102710;4238.71794872;3715.51281940;2172.17948281;229.99999153;-0.00000896;3322.30769037;4107.94871767;3847.17948635;4301.53846168;4766.15384727;4303.58974373;4172.05128192;4270.76923084
4266.79487187;4201.79487173;4727.05128310;4238.97435898;3811.53846064;2199.61538031;34.23076034;-0.00000896;3321.53845960;4105.12820485;3747.43589640;4304.48717963;4661.53846245;4303.33333348;4172.56410243;4270.76923084
4240.25641026;4201.41025634;4797.17948836;4239.10256411;3289.35897235;2169.23076486;-0.00000896;-0.00000896;3322.43589549;4104.61538434;3611.28204997;4302.82051296;4764.10256522;4301.79487194;4172.17948704;4237.94871795
4238.07692308;4175.76923063;4662.94871886;4240.38461539;5319.48718178;2166.79486742;-0.00000896;-0.00000896;3348.84615197;4104.23076896;4073.33333299;4301.28205142;4760.12820624;4300.76923091;4171.02564089;4237.94871795
4236.79487180;4173.46153833;4829.48718074;4239.23076923;4501.53846210;2167.56409819;-0.00000896;-0.00000896;3322.43589549;4106.02564075;3683.46153728;4301.02564117;4963.97436051;4301.79487194;4171.92307679;4237.94871795
4234.48717949;4171.92307679;5681.92307998;4240.38461539;4498.46153902;2167.05127768;-0.00000896;-0.00000896;3320.89743396;4102.69230742;3613.07692176;4301.02564117;5386.79487423;4300.89743604;4171.15384602;4237.94871795
4234.61538462;4171.41025628;4928.84615531;4240.64102564;3450.25640859;2173.20512383;-0.00000896;-0.00000896;3319.35897242;4102.82051255;3709.23076812;4302.43589758;4894.61538601;4302.56410271;4172.17948704;4237.94871795
4234.48717949;4171.28205115;4628.20512904;4241.28205129;3518.20512668;2173.58973922;-0.00000896;-0.00000896;3316.02563908;4070.76923043;3939.99999938;4299.61538476;4562.82051352;4302.43589758;4172.43589730;4237.94871795
4208.58974352;4170.76923063;4766.53846265;4267.05128212;3680.51281934;2202.17948288;-0.00000896;-0.00000896;3316.92307498;4043.33333292;3778.58974262;4302.30769245;4596.79487256;4301.79487194;4171.79487166;4205.12820506
4207.69230763;4172.69230756;4830.64102690;4268.71794879;3454.10256244;2200.51281621;-0.00000896;-0.00000896;3289.61538260;4039.10256369;3713.33333223;4300.12820527;4732.94871899;4303.33333348;4171.53846140;4205.12820506
4206.66666660;4174.35897422;4733.97436002;4266.66666674;3775.76922980;2198.97435467;-0.00000896;-0.00000896;3287.82051081;4043.46153805;3680.76922959;4273.46153853;4695.64102662;4302.30769245;4171.53846140;4205.12820506
4204.99999993;4176.02564089;4890.76923216;4267.94871802;3709.48717838;2202.43589313;-0.00000896;-0.00000896;3285.89743389;4041.66666625;3844.10256327;4300.00000014;4729.87179592;4302.43589758;4170.89743576;4205.12820506
4204.35897429;4202.94871788;4630.51282135;4241.41025641;3681.92307575;2205.25640595;-0.00000896;-0.00000896;3283.07692107;4042.17948677;3911.02564033;4273.97435905;4564.10256480;4301.28205142;4171.66666653;4205.12820506
4202.82051275;4204.35897429;4694.87179585;4239.87179488;3515.51281899;2204.87179057;-0.00000896;-0.00000896;3254.48717741;4038.07692266;3811.15384525;4301.79487194;4726.66666771;4301.79487194;4171.92307679;4205.12820506
4202.56410250;4205.38461532;4795.76923195;4239.74358975;3681.66666549;2201.53845723;-0.00000896;-0.00000896;3255.12820305;4044.10256369;3713.20512710;4274.10256418;4693.58974457;4301.53846168;4171.92307679;4205.12820506
4175.89743576;4205.76923070;4761.41025753;4237.82051282;3648.46153721;2201.79486749;-0.00000896;-0.00000896;3255.64102356;4073.33333299;3775.89743493;4300.51282066;4697.05128303;4302.94871809;4171.79487166;4172.30769217
4201.15384609;4205.12820506;4891.41025780;4236.92307693;3648.46153721;2200.25640595;-0.00000896;-0.00000896;3252.30769023;4075.64102530;3841.66666584;4302.82051296;4862.94871927;4302.69230784;4170.25641012;4205.12820506
4201.28205122;4205.64102558;4794.23077042;4236.15384616;3742.17948614;2172.69230332;-0.00000896;-0.00000896;3252.69230561;4107.82051255;3874.61538385;4300.64102578;4628.71794956;4302.43589758;4171.92307679;4205.12820506
4208.97435891;4206.28205122;4701.02564200;4235.51282052;3484.74358815;2173.46153409;-0.00000896;-0.00000896;3252.82051074;4106.15384588;3782.30769134;4301.02564117;4532.17948781;4302.94871809;4172.17948704;4205.12820506
4201.79487173;4205.51282045;4891.79487319;4234.61538462;3709.10256299;2200.12820082;-0.00000896;-0.00000896;3253.71794664;4108.58974332;3715.64102453;4300.25641040;4897.05128344;4303.20512835;4171.92307679;4205.12820506
4202.05128199;4204.99999993;4825.64102690;4233.84615385;3643.71794747;2171.15384178;-0.00000896;-0.00000896;3256.15384407;4107.43589716;3813.71794782;4299.87179501;4631.79487263;4301.79487194;4171.92307679;4205.12820506
4202.69230763;4203.58974352;4797.17948836;4233.97435898;3648.46153721;2173.71794434;-0.00000896;-0.00000896;3282.17948517;4105.12820485;3843.33333250;4300.51282066;4700.76923175;4301.15384630;4171.79487166;4205.12820506
4204.10256404;4202.30769224;4859.48718081;4234.10256411;3583.97435759;2171.41025204;-0.00000896;-0.00000896;3282.94871594;4103.20512793;3908.97435828;4301.66666681;4633.58974443;4303.33333348;4171.28205115;4205.12820506
4204.48717942;4201.41025634;4830.76923202;4233.84615385;3582.94871656;2172.69230332;-0.00000896;-0.00000896;3285.25640825;4106.15384588;3813.58974269;4302.56410271;4732.69230874;4301.53846168;4172.30769217;4205.12820506
4203.20512814;4201.28205122;4832.69230895;4235.76923077;3615.38461407;2198.97435467;-0.00000896;-0.00000896;3284.35897235;4108.07692280;3775.12820416;4300.51282066;4762.17948830;4302.30769245;4173.20512807;4205.12820506
4205.64102558;4175.51282038;4863.20512953;4237.30769231;3582.56410118;2201.53845723;-0.00000896;-0.00000896;3283.71794671;4077.82051248;3809.10256320;4300.64102578;4700.25641123;4303.07692322;4171.79487166;4205.12820506
4206.15384609;4175.38461525;4830.76923202;4237.56410257;3581.41025502;2200.64102134;229.99999153;-0.00000896;3284.35897235;4074.35897402;3941.66666605;4274.23076930;4700.00000098;4304.10256425;4171.92307679;4205.12820506
4205.89743583;4175.64102551;4792.82051401;4239.10256411;3709.99999889;2173.84614947;229.99999153;-0.00000896;3286.28204927;4076.66666632;3811.53846064;4300.76923091;4632.82051366;4303.46153860;4171.79487166;4205.12820506
4206.92307686;4174.74358961;4864.87179620;4239.23076923;3613.71794740;2199.35897005;229.99999153;-0.00000896;3284.99999799;4106.41025614;3847.69230686;4300.76923091;4797.17948836;4304.35897450;4171.92307679;4205.12820506
4207.82051275;4175.12820499;4957.17948871;4239.61538462;3676.79487062;2205.89743159;229.99999153;-0.00000896;3256.92307484;4103.33333306;3814.99999910;4300.76923091;4828.58974484;4302.94871809;4172.05128192;4205.12820506
4207.30769224;4175.51282038;4698.97435995;4239.23076923;3745.51281947;2205.38461108;-0.00000896;-0.00000896;3256.79486971;4075.25640991;3777.56410160;4300.12820527;4766.28205240;4303.33333348;4171.66666653;4205.12820506
4207.30769224;4201.53846147;4896.53846293;4240.38461539;3708.84615274;2201.79486749;3.46152950;-0.00000896;3256.28204920;4075.76923043;4038.07692266;4300.89743604;4532.30769294;4304.23076937;4171.53846140;4205.12820506
4208.07692301;4201.15384609;4830.64102690;4239.23076923;3547.82051137;2169.74358537;229.99999153;-0.00000896;3282.17948517;4073.46153812;3743.46153742;4300.51282066;4601.92307769;4302.05128219;4172.17948704;4205.12820506
4206.02564096;4175.25641012;5088.46154027;4240.00000000;3713.71794761;2200.51281621;3.46152950;-0.00000896;3254.99999792;4073.71794837;3808.58974269;4300.12820527;4631.02564186;4302.82051296;4170.25641012;4205.12820506
4206.41025634;4201.02564096;4824.61538587;4238.58974359;3779.61538365;2200.89743159;229.99999153;-0.00000896;3252.94871587;4076.53846119;3847.30769148;4274.61538469;4663.84615475;4302.05128219;4171.66666653;4205.12820506
4205.38461532;4201.41025634;4928.71795018;4238.97435898;3677.94871677;2203.84614954;3.46152950;-0.00000896;3250.89743382;4074.74358940;4011.28205080;4302.43589758;4699.87179585;4303.58974373;4171.41025628;4205.12820506
4206.41025634;4201.79487173;4729.23077028;4239.35897436;3618.33333202;2205.25640595;229.99999153;-0.00000896;3251.02563894;4044.87179446;3812.82051192;4302.69230784;4562.94871865;4304.10256425;4171.79487166;4205.12820506
4205.76923070;4201.53846147;4827.43589869;4236.66666667;3679.99999882;2201.92307262;3.46152950;-0.00000896;3250.64102356;4102.94871767;3942.82051220;4300.64102578;4632.30769315;4304.74358989;4172.30769217;4205.12820506
4205.12820506;4203.97435891;4960.51282205;4235.89743590;3680.12820395;2202.69230339;229.99999153;-0.00000896;3252.69230561;4072.30769196;3809.35897346;4300.64102578;4663.58974450;4301.92307707;4172.30769217;4205.12820506
4203.58974352;4203.84615378;4893.33333473;4234.48717949;3710.12820402;2202.43589313;3.46152950;-0.00000896;3249.48717741;4103.71794844;3879.61538385;4273.97435905;4601.41025718;4304.35897450;4171.79487166;4205.12820506
4204.10256404;4203.58974352;4793.58974477;4234.61538462;3748.84615281;2202.43589313;229.99999153;-0.00000896;3253.84615177;4077.56410222;3675.89743472;4301.79487194;4530.64102627;4303.07692322;4172.05128192;4205.12820506
4203.71794865;4203.07692301;4762.30769342;4208.84615378;3583.58974220;2202.30768800;3.46152950;-0.00000896;3250.64102356;4073.71794837;4008.71794824;4300.25641040;4695.00000098;4302.82051296;4172.17948704;4205.12820506
4203.07692301;4204.23076917;4861.66666799;4208.58974352;3649.10256286;2173.84614947;229.99999153;-0.00000896;3252.30769023;4074.99999966;3808.07692218;4299.61538476;4698.07692405;4302.82051296;4171.66666653;4205.12820506
4204.35897429;4203.33333327;4765.00000112;4207.69230763;3745.64102460;2172.43589306;3.46152950;-0.00000896;3255.76922869;4104.23076896;3845.51281968;4302.17948732;4928.84615531;4302.94871809;4172.05128192;4205.12820506
4203.20512814;4202.69230763;4991.79487340;4207.30769224;3611.92307561;2203.71794441;229.99999153;-0.00000896;3254.74358766;4075.64102530;4041.02564061;4273.71794879;4660.89743680;4303.97435912;4173.07692294;4205.12820506
4203.97435891;4203.71794865;4926.92307839;4207.05128199;3710.38461428;2203.58973929;3.46152950;-0.00000896;3254.99999792;4102.82051255;3906.02564033;4300.51282066;4759.61538573;4303.58974373;4171.66666653;4205.12820506
4204.10256404;4204.35897429;4799.74359093;4208.58974352;3651.02563978;2201.02563672;229.99999153;-0.00000896;3255.76922869;4073.84615350;3840.64102481;4274.48717956;4564.35897506;4303.71794886;4171.41025628;4205.12820506
4204.74358968;4202.43589737;4766.53846265;4208.33333327;3715.12820402;2200.76922646;3.46152950;-0.00000896;3283.97435696;4076.02564068;4008.97435849;4300.76923091;4667.05128296;4303.20512835;4172.17948704;4205.12820506
4205.12820506;4203.07692301;4862.56410389;4208.33333327;3544.61538316;2199.74358544;229.99999153;-0.00000896;3284.99999799;4103.58974332;3812.17948628;4299.74358989;4598.46153923;4303.71794886;4172.05128192;4205.12820506
4203.84615378;4202.94871788;4893.33333473;4235.25641026;3745.89743486;2202.43589313;3.46152950;-0.00000896;3282.43589542;4074.99999966;3847.17948635;4299.48717963;4957.94871948;4303.58974373;4172.94871781;4205.12820506
4205.89743583;4204.35897429;4762.69230881;4234.61538462;3517.05128053;2204.10255980;229.99999153;-0.00000896;3284.99999799;4075.38461504;3874.87179411;4302.05128219;4732.05128310;4302.94871809;4172.05128192;4205.12820506
4205.89743583;4203.97435891;4792.30769349;4236.92307693;3583.84615246;2201.02563672;3.46152950;-0.00000896;3286.15384414;4103.20512793;3908.71794803;4301.15384630;4601.15384692;4302.17948732;4172.56410243;4205.12820506
4206.15384609;4203.46153840;4829.74359100;4237.05128206;3676.28205010;2201.66666236;229.99999153;-0.00000896;3286.41025440;4102.94871767;3741.53846050;4300.76923091;4662.56410347;4302.43589758;4172.56410243;4205.12820506
4206.53846147;4202.82051275;4796.41025760;4237.82051282;3708.71794761;2203.84614954;3.46152950;-0.00000896;3286.02563901;4104.99999973;3841.66666584;4300.25641040;4661.92307783;4302.82051296;4169.35897422;4205.12820506
4205.64102558;4202.94871788;4962.30769384;4236.28205129;3643.20512696;2205.89743159;229.99999153;-0.00000896;3283.46153645;4077.69230735;3978.46153791;4299.61538476;4897.30769370;4300.64102578;4171.92307679;4205.12820506
4204.74358968;4204.35897429;4634.61538545;4237.82051282;3711.02563992;2204.99999570;3.46152950;-0.00000896;3256.15384407;4074.61538427;3843.58974276;4301.66666681;4664.87179578;4302.94871809;4171.79487166;4205.12820506
4204.23076917;4205.38461532;4727.30769335;4235.51282052;3712.30769120;2202.17948288;229.99999153;-0.00000896;3253.46153638;4077.56410222;3941.28205066;4300.51282066;4694.61538559;4301.92307707;4172.05128192;4205.12820506
4205.12820506;4205.25641019;4761.66666778;4236.66666667;3552.43589598;2201.41025211;3.46152950;-0.00000896;3253.97435689;4075.64102530;3712.17948607;4299.87179501;4667.05128296;4303.58974373;4171.79487166;4205.12820506
4205.25641019;4204.48717942;5029.48718116;4235.76923077;3780.76922980;2206.15384185;229.99999153;-0.00000896;3254.10256202;4105.89743562;3944.35897374;4302.30769245;4700.51282149;4302.82051296;4171.92307679;4205.12820506
4205.51282045;4205.51282045;4762.05128317;4236.28205129;3745.38461435;2200.25640595;-0.00000896;-0.00000896;3251.79486971;4104.35897408;3742.56410153;4301.15384630;4599.35897513;4304.35897450;4171.79487166;4205.12820506
4206.15384609;4204.48717942;4729.10256515;4236.66666667;3611.41025509;2201.79486749;-0.00000896;-0.00000896;3254.23076715;4103.58974332;4008.84615336;4301.79487194;4465.38461587;4302.56410271;4170.12820499;4205.12820506
4206.53846147;4204.61538455;4666.15384706;4235.25641026;3649.23076798;2201.53845723;-0.00000896;-0.00000896;3254.99999792;4103.84615357;3650.38461414;4301.66666681;4533.71794935;4302.17948732;4171.53846140;4205.12820506
4208.07692301;4203.46153840;4792.30769349;4235.76923077;3710.64102453;2199.87179057;229.99999153;-0.00000896;3256.15384407;4077.30769196;3712.05128094;4273.71794879;4530.76923140;4302.30769245;4171.79487166;4205.12820506
4207.30769224;4203.46153840;4865.38461671;4234.74358975;3682.56410139;2202.43589313;229.99999153;-0.00000896;3257.05127997;4077.56410222;3842.56410173;4301.02564117;4798.33333452;4303.84615399;4171.53846140;4205.12820506
4206.15384609;4204.48717942;4760.89743701;4235.76923077;3614.48717817;2204.10255980;229.99999153;-0.00000896;3255.76922869;4104.61538434;3878.07692232;4301.15384630;4504.48718005;4300.51282066;4170.38461525;4205.12820506
4206.53846147;4204.61538455;4667.69230860;4236.28205129;3617.05128073;2174.23076486;229.99999153;-0.00000896;3256.92307484;4077.82051248;3776.79487083;4300.76923091;4662.69230860;4302.56410271;4171.53846140;4205.12820506
4206.79487173;4203.07692301;4862.30769363;4237.17948718;3483.97435738;2200.12820082;-0.00000896;-0.00000896;3254.99999792;4103.20512793;3779.87179390;4301.02564117;4858.20512953;4301.66666681;4173.46153833;4205.12820506
4207.17948711;4203.20512814;4895.38461678;4236.41025641;3775.51281954;2233.20512397;-0.00000896;-0.00000896;3254.48717741;4105.12820485;3775.76922980;4300.00000014;4793.58974477;4303.46153860;4172.17948704;4205.12820506
4206.41025634;4204.61538455;4633.97435981;4237.43589744;3683.58974241;2200.89743159;-0.00000896;-0.00000896;3255.89743382;4110.51282024;3879.48717873;4273.58974366;4601.66666743;4303.20512835;4172.43589730;4205.12820506
4206.92307686;4202.94871788;4896.66666806;4237.17948718;3709.23076812;2200.64102134;-0.00000896;-0.00000896;3283.46153645;4107.56410229;3977.17948663;4301.41025655;4732.94871899;4302.30769245;4171.92307679;4205.12820506
4207.43589737;4202.43589737;4860.12820645;4238.20512821;3549.48717803;2200.38461108;-0.00000896;-0.00000896;3256.92307484;4104.48717921;3807.43589654;4300.25641040;4726.15384720;4304.10256425;4171.79487166;4205.12820506
4207.05128199;4201.53846147;4957.94871948;4238.58974359;3774.48717852;2202.30768800;-0.00000896;-0.00000896;3254.10256202;4077.56410222;3741.53846050;4301.41025655;4628.46153930;4303.46153860;4172.17948704;4205.12820506
4206.02564096;4202.43589737;4793.20512939;4237.82051282;3741.79487076;2201.79486749;-0.00000896;-0.00000896;3252.69230561;4107.17948691;3809.35897346;4301.15384630;4531.53846217;4302.69230784;4171.92307679;4205.12820506
4205.89743583;4203.58974352;4729.87179592;4238.97435898;3748.97435794;2203.46153416;-0.00000896;-0.00000896;3253.33333125;4107.94871767;3944.99999938;4274.48717956;4596.15384692;4303.46153860;4174.35897422;4205.12820506
4206.79487173;4202.69230763;4792.82051401;4238.58974359;3617.30769099;2204.87179057;-0.00000896;-0.00000896;3252.43589536;4107.05128178;3842.94871712;4301.92307707;4665.51282142;4302.82051296;4171.92307679;4205.12820506
4206.92307686;4203.33333327;4927.56410403;4238.84615385;3680.76922959;2203.84614954;-0.00000896;-0.00000896;3253.20512612;4105.51282024;3877.69230693;4302.05128219;4827.69230895;4302.69230784;4171.92307679;4205.12820506
4207.82051275;4202.94871788;4925.38461685;4238.84615385;3582.69230631;2204.23076493;-0.00000896;-0.00000896;3255.25640818;4105.38461511;3807.43589654;4300.00000014;4733.20512925;4302.82051296;4171.79487166;4205.12820506
4207.30769224;4203.46153840;4926.66666813;4240.12820513;3744.48717845;2200.89743159;-0.00000896;-0.00000896;3282.05128004;4104.35897408;3906.41025572;4302.82051296;4563.97435967;4303.97435912;4171.92307679;4205.12820506
4206.28205122;4202.82051275;4699.61538559;4240.25641026;3650.89743465;2202.30768800;-0.00000896;-0.00000896;3282.17948517;4107.17948691;3878.07692232;4274.10256418;4537.30769294;4301.79487194;4171.53846140;4205.12820506
4204.87179481;4201.53846147;4764.61538573;4241.41025641;3741.92307588;2203.71794441;-0.00000896;-0.00000896;3252.82051074;4107.69230742;4012.05128157;4272.94871802;4564.87179557;4303.07692322;4169.48717935;4205.12820506
4203.33333327;4202.05128199;4764.23077035;4240.12820513;3451.15384449;2204.87179057;-0.00000896;-0.00000896;3253.07692100;4107.43589716;3676.41025523;4299.74358989;4533.71794935;4303.97435912;4171.92307679;4205.12820506
4203.33333327;4201.66666660;4598.71794949;4240.00000000;3811.53846064;2201.66666236;-0.00000896;-0.00000896;3251.92307484;4107.82051255;3874.99999924;4273.71794879;4695.76923175;4304.87179501;4172.43589730;4205.12820506
4202.30769224;4174.23076910;4996.28205288;4240.12820513;3679.74358857;2204.10255980;-0.00000896;-0.00000896;3249.35897228;4106.92307665;3974.10256355;4301.41025655;4726.66666771;4302.56410271;4171.79487166;4205.12820506
4201.92307686;4175.12820499;4798.33333452;4239.61538462;3680.76922959;2205.25640595;-0.00000896;-0.00000896;3250.12820305;4106.02564075;3879.99999924;4301.41025655;4597.17948795;4303.97435912;4171.79487166;4205.12820506
4202.69230763;4175.51282038;4662.17948809;4239.48717949;3646.66666542;2205.38461108;-0.00000896;-0.00000896;3249.23076715;4102.69230742;3742.56410153;4300.51282066;4531.92307755;4303.58974373;4172.43589730;4205.12820506
4201.66666660;4174.35897422;4893.20512960;4238.46153847;3547.94871649;2201.28204698;-0.00000896;-0.00000896;3250.25640818;4104.74358947;3778.97435801;4274.61538469;4700.00000098;4303.46153860;4171.79487166;4205.12820506
4202.05128199;4173.58974345;4863.71795004;4237.69230770;3813.97435807;2202.17948288;-0.00000896;-0.00000896;3250.51281843;4102.69230742;3683.97435780;4301.41025655;4663.07692398;4301.92307707;4171.53846140;4205.12820506
4201.79487173;4173.20512807;4759.48718060;4236.92307693;3710.25640915;2203.84614954;-0.00000896;-0.00000896;3222.56410041;4107.56410229;3775.51281954;4299.61538476;4565.12820583;4304.35897450;4171.79487166;4205.12820506
4201.79487173;4173.97435884;4762.30769342;4238.84615385;3512.56410104;2202.17948288;-0.00000896;-0.00000896;3221.41025426;4076.28205094;3876.41025565;4274.74358982;4563.46153916;4301.92307707;4172.05128192;4205.12820506
4202.56410250;4174.10256397;4795.51282170;4238.46153847;3482.56410097;2204.61538031;-0.00000896;-0.00000896;3224.48717734;4103.46153819;3747.94871691;4299.74358989;4697.43589841;4304.23076937;4171.53846140;4205.12820506
4201.28205122;4172.94871781;5029.23077090;4237.94871795;3774.99999903;2204.87179057;229.99999153;-0.00000896;3249.99999792;4104.87179460;3874.48717873;4299.61538476;4663.71794963;4302.94871809;4170.38461525;4205.12820506
4201.15384609;4173.71794858;4994.23077083;4236.66666667;3650.76922952;2232.69230346;-0.00000896;-0.00000896;3221.66666452;4074.87179453;3971.53846099;4301.28205142;4763.84615496;4303.07692322;4171.92307679;4205.12820506
4201.15384609;4174.10256397;4830.64102690;4237.17948718;3807.94871705;2205.64102134;1.53845258;-0.00000896;3222.05127990;4076.41025607;3944.99999938;4274.35897443;4632.43589827;4301.66666681;4170.12820499;4205.12820506
4201.79487173;4173.84615371;4696.53846252;4236.28205129;3517.43589591;2205.12820082;-0.00000896;-0.00000896;3223.33333118;4076.79487145;3807.94871705;4274.10256418;4569.87179557;4303.46153860;4171.79487166;4205.12820506
4201.53846147;4174.23076910;4825.38461664;4236.41025641;3710.25640915;2232.56409833;229.99999153;-0.00000896;3222.82051067;4073.71794837;3879.48717873;4300.12820527;4797.17948836;4301.66666681;4171.02564089;4205.12820506
4202.82051275;4175.12820499;4897.43589883;4236.92307693;3648.58974234;2203.71794441;229.99999153;-0.00000896;3223.84615170;4070.51282017;3778.46153749;4300.51282066;4661.02564193;4304.10256425;4170.89743576;4205.12820506
4204.48717942;4175.25641012;5126.66666855;4235.64102564;3678.84615267;2232.82050859;229.99999153;-0.00000896;3222.69230554;4072.30769196;3846.15384532;4300.00000014;4733.71794976;4302.94871809;4171.28205115;4205.12820506
4203.46153840;4174.87179474;4599.10256487;4236.15384616;3808.07692218;2203.97435467;229.99999153;-0.00000896;3223.84615170;4044.99999959;3841.53846071;4300.76923091;4597.17948795;4303.84615399;4174.74358961;4205.12820506
4203.58974352;4175.76923063;4793.71794990;4236.66666667;3420.38461365;2204.10255980;229.99999153;-0.00000896;3250.38461330;4071.02564068;3847.05128122;4273.71794879;4634.48718032;4301.41025655;4171.28205115;4205.12820506
4203.20512814;4201.28205122;4797.69230888;4235.89743590;3746.41025537;2205.76922646;229.99999153;-0.00000896;3223.97435682;4044.23076882;3614.74358843;4300.38461553;4761.66666778;4303.33333348;4171.79487166;4205.12820506
4203.07692301;4175.64102551;4797.56410375;4235.25641026;3646.02563978;2206.28204698;229.99999153;-0.00000896;3222.82051067;4071.41025607;3812.17948628;4300.76923091;4434.74359016;4302.05128219;4171.28205115;4205.12820506
4202.43589737;4175.89743576;4864.61538594;4235.64102564;3682.43589626;2231.92307269;229.99999153;-0.00000896;3223.07692093;4074.48717914;3781.66666570;4299.48717963;4799.48718067;4303.84615399;4172.94871781;4205.12820506
4202.69230763;4176.15384602;4760.89743701;4234.48717949;3645.38461414;2235.12820089;229.99999153;-0.00000896;3219.87179272;4042.94871754;3880.76923001;4300.38461553;4635.25641109;4302.05128219;4171.53846140;4205.12820506
4202.82051275;4176.28205115;4727.17948823;4208.97435891;3712.17948607;2205.89743159;229.99999153;-0.00000896;3219.87179272;4043.07692266;3807.94871705;4273.84615392;4532.43589807;4304.74358989;4171.92307679;4205.12820506
4202.05128199;4176.02564089;4733.20512925;4208.84615378;3511.79487027;2199.61538031;229.99999153;-0.00000896;3222.56410041;4074.99999966;3680.38461421;4299.74358989;4668.46153937;4303.20512835;4171.66666653;4205.12820506
4201.66666660;4175.76923063;4890.89743729;4206.79487173;3775.51281954;2236.66666243;229.99999153;-0.00000896;3219.35897221;4071.02564068;3879.35897360;4274.61538469;4829.23077049;4303.33333348;4173.07692294;4205.12820506
4174.74358961;4201.02564096;4830.12820638;4205.38461532;3679.61538344;2232.56409833;229.99999153;-0.00000896;3218.58974144;4070.89743555;3944.74358912;4300.64102578;4663.07692398;4303.33333348;4172.56410243;4172.30769217
4172.69230756;4201.02564096;4795.38461657;4202.05128199;3742.05128101;2206.28204698;229.99999153;-0.00000896;3220.51281836;4072.17948684;3874.99999924;4301.41025655;4667.56410347;4303.07692322;4171.53846140;4172.30769217
4169.35897422;4175.51282038;4931.02564249;4201.02564096;3515.25640873;2198.97435467;229.99999153;-0.00000896;3221.92307477;4070.89743555;4006.28205080;4301.66666681;4730.89743694;4303.84615399;4173.07692294;4172.30769217
4143.46153826;4174.74358961;4925.89743736;4173.58974345;3840.12820430;2172.82050845;229.99999153;-0.00000896;3223.20512605;4073.84615350;3650.76922952;4273.58974366;4700.89743687;4301.79487194;4171.79487166;4139.35897415
4141.02564082;4173.46153833;4891.79487319;4173.07692294;3709.61538351;2169.61538024;229.99999153;-0.00000896;3222.69230554;4073.84615350;3945.51281989;4273.58974366;4799.48718067;4302.17948732;4173.58974345;4139.35897415
4140.25641005;4173.46153833;4792.05128324;4172.17948704;3745.12820409;2198.97435467;229.99999153;-0.00000896;3222.56410041;4073.97435863;3972.43589688;4301.15384630;4597.94871872;4302.43589758;4171.53846140;4139.35897415
4139.23076903;4173.33333320;4796.41025760;4173.58974345;3545.89743444;2201.79486749;229.99999153;-0.00000896;3224.10256195;4104.35897408;3742.56410153;4301.66666681;4595.00000077;4302.56410271;4172.05128192;4139.35897415
4138.58974339;4174.35897422;4798.71794990;4172.30769217;3613.71794740;2204.10255980;229.99999153;-0.00000896;3223.07692093;4103.07692280;3779.10256313;4301.02564117;4565.00000070;4303.84615399;4171.92307679;4139.35897415
4137.94871774;4174.23076910;4864.10256543;4173.71794858;3748.84615281;2202.69230339;229.99999153;-0.00000896;3249.87179279;4077.69230735;3714.74358864;4299.74358989;4726.66666771;4302.30769245;4171.79487166;4139.35897415
4138.58974339;4173.71794858;4635.76923161;4172.30769217;3681.02563985;2173.33332896;229.99999153;-0.00000896;3254.35897228;4109.74358947;3748.46153742;4301.28205142;4431.66666709;4301.92307707;4171.66666653;4139.35897415
4139.23076903;4172.69230756;4764.74359086;4171.41025628;3646.28205004;2202.17948288;229.99999153;-0.00000896;3283.84615183;4135.76923056;3972.43589688;4274.61538469;4732.56410361;4301.79487194;4172.30769217;4139.35897415
4137.05128185;4170.51282038;4828.97436023;4173.97435884;3484.48717789;2201.15384185;229.99999153;-0.00000896;3288.46153645;4110.51282024;3876.66666591;4301.15384630;4694.10256508;4302.43589758;4172.05128192;4139.35897415
4135.51282031;4169.61538448;4958.33333487;4172.69230756;3744.48717845;2203.97435467;229.99999153;-0.00000896;3315.12820319;4136.15384595;3808.33333243;4302.43589758;4695.00000098;4302.43589758;4172.43589730;4139.35897415
4108.71794844;4169.74358961;4630.51282135;4173.84615371;3748.71794768;2173.58973922;229.99999153;-0.00000896;3317.69230575;4110.12820485;3944.99999938;4300.00000014;4661.28205219;4301.41025655;4173.20512807;4106.53846126
4106.02564075;4143.33333313;5028.84615552;4172.56410243;3679.87179369;2170.89743152;229.99999153;-0.00000896;3320.89743396;4138.33333313;3814.35897346;4301.66666681;4832.17948843;4302.05128219;4172.17948704;4106.53846126
4103.84615357;4141.66666646;4862.94871927;4173.46153833;3682.05128087;2200.89743159;229.99999153;-0.00000896;3318.20512626;4138.58974339;3943.33333271;4301.28205142;4666.28205219;4301.02564117;4172.05128192;4106.53846126
4076.53846119;4140.12820492;4830.38461664;4172.82051269;3617.94871663;2203.84614954;229.99999153;-0.00000896;3315.25640831;4108.84615357;3647.17948593;4299.48717963;4499.23076979;4301.41025655;4171.79487166;4073.71794837
4075.89743555;4141.15384595;4862.30769363;4174.35897422;3745.76922973;2203.58973929;229.99999153;-0.00000896;3285.38461337;4108.07692280;3777.43589647;4303.33333348;4595.51282128;4302.30769245;4173.71794858;4073.71794837
4076.41025607;4141.53846133;4897.05128344;4172.94871781;3708.84615274;2169.23076486;229.99999153;-0.00000896;3285.64102363;4109.10256383;3810.89743500;4303.07692322;4831.02564228;4301.79487194;4172.43589730;4073.71794837
4076.66666632;4141.28205108;4760.12820624;4174.61538448;3743.46153742;2171.79486742;229.99999153;-0.00000896;3288.58974158;4106.15384588;3975.51281996;4301.41025655;4699.74359072;4299.87179501;4169.99999986;4073.71794837
4104.10256383;4141.53846133;4695.38461636;4174.61538448;3480.89743430;2169.74358537;229.99999153;-0.00000896;3285.76922876;4138.07692287;3812.94871705;4303.20512835;4465.25641075;4301.15384630;4172.05128192;4106.53846126
4104.87179460;4142.17948697;4759.23077035;4173.71794858;3741.53846050;2170.76922640;-0.00000896;-0.00000896;3285.51281850;4106.53846126;3808.58974269;4302.05128219;4595.25641102;4301.66666681;4171.15384602;4106.53846126
4105.89743562;4141.28205108;4825.38461664;4175.12820499;3682.05128087;2167.82050845;-0.00000896;-0.00000896;3286.66666466;4109.10256383;3552.05128060;4303.33333348;4436.15384657;4300.12820527;4171.92307679;4106.53846126
4106.79487152;4142.30769210;4895.76923216;4174.23076910;3742.94871691;2170.12820075;229.99999153;-0.00000896;3288.58974158;4136.53846133;3975.51281996;4301.66666681;4864.61538594;4301.79487194;4172.05128192;4106.53846126
4109.48717921;4142.43589723;4891.15384755;4174.61538448;3679.35897318;2168.84614947;-0.00000896;-0.00000896;3286.66666466;4109.61538434;4008.97435849;4302.56410271;4595.76923154;4274.10256418;4169.61538448;4106.53846126
4135.89743569;4141.53846133;4694.23077021;4174.74358961;3611.53846022;2168.20512383;-0.00000896;-0.00000896;3289.10256209;4106.41025614;3616.41025509;4303.71794886;4565.89743660;4299.48717963;4172.30769217;4139.35897415
4137.05128185;4142.56410236;4824.61538587;4173.97435884;3649.23076798;2167.43589306;-0.00000896;-0.00000896;3317.17948524;4107.94871767;3682.94871677;4300.38461553;4668.58974450;4272.82051289;4171.79487166;4139.35897415
4136.79487159;4143.07692287;4765.38461650;4174.48717935;3748.07692204;2141.28204684;-0.00000896;-0.00000896;3319.74358780;4108.33333306;3844.35897353;4301.92307707;4562.69230839;4299.48717963;4171.92307679;4139.35897415
4136.02564082;4141.66666646;4666.92307783;4173.97435884;3745.64102460;2167.30768793;-0.00000896;-0.00000896;3322.94871601;4077.17948684;3812.56410166;4302.94871809;4630.12820597;4300.25641040;4169.48717935;4139.35897415
4110.25640998;4141.41025621;4597.82051359;4172.69230756;3741.66666563;2166.15384178;-0.00000896;-0.00000896;3352.43589556;4075.76923043;3975.89743535;4302.43589758;4600.64102641;4301.53846168;4172.43589730;4106.53846126
4108.46153819;4140.25641005;4763.07692419;4172.82051269;3417.17948545;2141.02563658;-0.00000896;-0.00000896;3355.25640838;4104.35897408;3715.12820402;4302.43589758;4602.69230846;4299.74358989;4171.15384602;4106.53846126
4107.82051255;4139.74358954;4828.71794997;4173.46153833;3746.28205024;2139.35896992;-0.00000896;-0.00000896;3381.79486999;4077.43589709;3710.38461428;4302.56410271;4733.84615489;4300.25641040;4172.05128192;4106.53846126
4106.28205101;4139.87179467;4663.71794963;4174.10256397;3714.74358864;2172.43589306;-0.00000896;-0.00000896;3354.23076736;4071.53846119;3873.07692232;4302.05128219;4627.82051366;4273.33333341;4170.89743576;4106.53846126
4104.87179460;4140.64102544;4890.51282191;4175.25641012;3709.23076812;2169.23076486;-0.00000896;-0.00000896;3355.12820326;4103.46153819;3775.51281954;4304.23076937;4470.89743639;4274.74358982;4171.79487166;4106.53846126
4105.51282024;4142.17948697;4830.89743715;4176.28205115;3780.64102467;2170.89743152;-0.00000896;-0.00000896;3353.33333146;4102.94871767;3909.87179418;4303.07692322;4761.92307804;4299.87179501;4171.92307679;4106.53846126
4104.35897408;4143.46153826;4963.58974512;4203.46153840;3514.99999848;2170.12820075;-0.00000896;-0.00000896;3355.38461351;4107.43589716;3747.82051178;4302.17948732;4667.30769321;4274.61538469;4172.30769217;4106.66666639
4105.76923050;4142.94871774;4662.94871886;4202.69230763;3617.94871663;2138.71794427;-0.00000896;-0.00000896;3354.61538274;4106.92307665;3846.53846071;4302.43589758;4696.53846252;4274.61538469;4171.92307679;4106.66666639
4105.51282024;4141.02564082;4893.20512960;4202.94871788;3713.20512710;2139.10255966;-0.00000896;-0.00000896;3382.17948538;4077.05128171;3616.15384484;4302.56410271;4627.94871879;4300.25641040;4171.92307679;4106.66666639
4105.12820485;4142.17948697;4795.00000119;4203.33333327;3744.99999896;2173.71794434;-0.00000896;-0.00000896;3353.84615197;4076.53846119;3872.82051206;4301.66666681;4630.12820597;4274.48717956;4171.79487166;4106.66666639
4105.89743562;4142.69230749;4701.28205226;4204.35897429;3548.20512675;2140.64102120;-0.00000896;-0.00000896;3353.07692120;4102.56410229;3743.71794768;4301.53846168;4530.51282114;4274.10256418;4171.92307679;4106.66666639
4107.82051255;4142.94871774;4829.35897561;4204.35897429;3648.46153721;2167.05127768;-0.00000896;-0.00000896;3352.94871608;4102.82051255;3808.84615295;4302.05128219;4701.41025739;4274.61538469;4171.92307679;4106.66666639
4110.38461511;4168.46153833;4892.43589883;4205.76923070;3646.28205004;2139.74358530;-0.00000896;-0.00000896;3355.12820326;4102.69230742;3779.35897339;4303.58974373;4535.38461601;4273.07692315;4172.05128192;4106.66666639
4137.05128185;4142.94871774;4830.00000125;4205.64102558;3709.35897325;2139.23076479;-0.00000896;-0.00000896;3354.23076736;4077.56410222;3810.76922987;4303.20512835;4829.48718074;4299.61538476;4171.53846140;4139.48717928
4139.61538441;4168.58974345;4665.89743680;4207.17948711;3616.15384484;2140.38461094;-0.00000896;-0.00000896;3353.71794685;4071.79487145;3972.69230714;4300.00000014;4467.69230818;4299.48717963;4171.79487166;4139.48717928
4140.25641005;4168.20512807;4660.89743680;4208.71794865;3643.71794747;2140.51281607;-0.00000896;-0.00000896;3355.64102377;4071.79487145;3713.58974248;4304.23076937;4598.97435974;4273.84615392;4171.92307679;4139.48717928
4143.20512800;4168.71794858;4929.87179633;4208.58974352;3646.92307568;2166.41025204;-0.00000896;-0.00000896;3380.64102384;4103.46153819;3742.56410153;4304.87179501;4761.41025753;4299.48717963;4171.41025628;4139.48717928
4168.71794858;4170.51282038;4763.71794983;4234.87179488;3809.74358884;2168.58973922;-0.00000896;-0.00000896;3354.61538274;4074.23076889;3972.05128150;4302.69230784;4596.28205205;4273.46153853;4172.82051269;4172.30769217
4171.41025628;4171.41025628;5160.89743785;4235.38461539;3679.23076805;2167.17948281;-0.00000896;-0.00000896;3355.12820326;4044.48717907;3880.64102488;4302.43589758;4829.87179613;4299.87179501;4171.41025628;4172.30769217
4171.79487166;4172.82051269;4764.61538573;4236.53846154;3777.30769134;2138.84614940;-0.00000896;-0.00000896;3382.94871615;4070.89743555;3906.92307623;4304.23076937;4627.94871879;4273.97435905;4170.51282038;4172.30769217
4173.58974345;4172.94871781;4829.48718074;4236.66666667;3580.25640887;2141.02563658;229.99999153;-0.00000896;3385.25640845;4074.23076889;3846.53846071;4302.94871809;4598.07692385;4274.74358982;4171.53846140;4172.30769217
4172.05128192;4173.97435884;4863.84615517;4237.30769231;3708.97435787;2140.12820068;229.99999153;-0.00000896;3384.74358794;4075.25640991;3648.46153721;4302.30769245;4662.05128296;4299.48717963;4171.53846140;4172.30769217
4172.43589730;4174.23076910;4896.53846293;4237.05128206;3683.33333216;2168.58973922;229.99999153;-0.00000896;3383.97435717;4077.69230735;3876.28205052;4304.48717963;4992.56410417;4273.84615392;4171.66666653;4172.30769217
4172.56410243;4201.15384609;4635.64102648;4238.33333334;3745.25640922;2140.64102120;229.99999153;-0.00000896;3381.41025461;4075.12820478;3778.84615288;4300.25641040;4500.12820569;4273.97435905;4173.33333320;4172.30769217
4173.58974345;4175.64102551;4830.25641151;4237.82051282;3650.89743465;2169.10255973;-0.00000896;-0.00000896;3354.61538274;4072.82051248;4005.12820465;4303.33333348;4699.10256508;4274.48717956;4171.66666653;4172.30769217
4176.15384602;4202.94871788;4995.51282211;4240.00000000;3514.23076771;2172.05127768;-0.00000896;-0.00000896;3352.17948531;4076.92307658;3711.28205017;4302.43589758;4599.10256487;4299.61538476;4172.69230756;4172.30769217
4201.79487173;4204.10256404;4797.56410375;4238.20512821;3676.79487062;2169.74358537;229.99999153;-0.00000896;3350.76922890;4102.82051255;3811.79487090;4301.66666681;4761.53846265;4273.46153853;4171.92307679;4205.12820506
4203.84615378;4205.25641019;4865.25641158;4236.28205129;3709.35897325;2166.79486742;-0.00000896;-0.00000896;3352.05128018;4103.46153819;3711.53846043;4305.76923091;4601.41025718;4299.48717963;4174.10256397;4205.12820506
4203.71794865;4205.38461532;4726.66666771;4236.53846154;3712.69230658;2140.12820068;229.99999153;-0.00000896;3354.74358787;4103.71794844;3846.53846071;4300.89743604;4568.84615454;4273.46153853;4171.15384602;4205.12820506
4205.89743583;4203.84615378;4694.87179585;4234.48717949;3582.17948579;2136.53845710;-0.00000896;-0.00000896;3381.15384435;4105.51282024;3748.07692204;4304.87179501;4434.61538504;4273.58974366;4171.41025628;4205.12820506
4205.38461532;4203.46153840;4798.71794990;4236.92307693;3708.97435787;2138.20512376;229.99999153;-0.00000896;3382.82051102;4109.87179460;3809.23076833;4305.12820527;4633.58974443;4274.10256418;4171.66666653;4205.12820506
4204.35897429;4202.43589737;4792.05128324;4238.33333334;3713.97435787;2166.41025204;-0.00000896;-0.00000896;3382.94871615;4109.87179460;3683.97435780;4301.92307707;4464.10256459;4274.48717956;4171.79487166;4205.12820506
4204.35897429;4201.79487173;4829.10256536;4237.82051282;3711.15384505;2168.33332896;229.99999153;-0.00000896;3383.07692127;4104.87179460;3941.53846092;4303.33333348;4732.30769335;4274.74358982;4171.92307679;4205.12820506
4203.71794865;4202.43589737;4926.79487326;4237.69230770;3584.23076784;2168.07691870;-0.00000896;-0.00000896;3354.10256223;4076.28205094;3907.30769162;4303.20512835;4726.66666771;4274.61538469;4171.92307679;4205.12820506
4203.58974352;4202.05128199;4827.94871920;4237.94871795;3647.82051157;2139.48717504;229.99999153;-0.00000896;3355.64102377;4077.43589709;3747.69230665;4305.00000014;4663.07692398;4274.23076930;4171.28205115;4205.12820506
4202.56410250;4202.56410250;4864.61538594;4237.94871795;3745.76922973;2137.94871351;-0.00000896;-0.00000896;3354.35897249;4104.10256383;3908.84615316;4304.87179501;4728.97436002;4273.58974366;4171.66666653;4205.12820506
4201.66666660;4201.79487173;4962.69230922;4239.87179488;3613.71794740;2140.25640581;229.99999153;-0.00000896;3355.12820326;4104.10256383;3943.71794810;4302.56410271;4667.43589834;4301.02564117;4171.66666653;4205.12820506
4203.20512814;4201.92307686;5054.87179661;4238.97435898;3775.51281954;2166.79486742;-0.00000896;-0.00000896;3353.97435710;4077.17948684;3913.20512751;4304.35897450;4799.35897554;4274.10256418;4171.79487166;4205.12820506
4201.79487173;4201.02564096;4830.00000125;4239.10256411;3512.05128053;2166.15384178;229.99999153;-0.00000896;3352.94871608;4108.20512793;3908.58974290;4304.61538476;4731.66666771;4273.07692315;4172.17948704;4205.12820506
4201.79487173;4176.28205115;4830.51282177;4238.33333334;3614.23076791;2166.53845716;-0.00000896;-0.00000896;3352.69230582;4104.61538434;3780.25640929;4274.74358982;4662.69230860;4299.48717963;4169.23076910;4205.12820506
4176.15384602;4202.05128199;4895.51282191;4237.56410257;3709.10256299;2167.82050845;229.99999153;-0.00000896;3351.28204941;4103.58974332;3843.97435814;4301.53846168;4701.02564200;4300.51282066;4171.53846140;4172.30769217
4201.41025634;4201.92307686;4996.66666827;4238.33333334;3774.35897339;2166.15384178;-0.00000896;-0.00000896;3351.15384428;4076.92307658;3874.23076847;4302.43589758;4898.20512960;4274.35897443;4171.92307679;4205.12820506
4202.43589737;4202.94871788;4667.43589834;4238.97435898;3714.74358864;2170.38461101;229.99999153;-0.00000896;3349.87179300;4075.12820478;3976.28205073;4302.30769245;4569.61538531;4300.00000014;4171.66666653;4205.12820506
4203.07692301;4203.46153840;4731.28205233;4238.84615385;3643.71794747;2167.69230332;-0.00000896;-0.00000896;3350.25640838;4104.87179460;3842.69230686;4302.43589758;4568.84615454;4300.25641040;4170.51282038;4205.12820506
4204.23076917;4202.56410250;4994.48718109;4238.71794872;3646.53846029;2135.12820068;229.99999153;-0.00000896;3351.02563915;4105.76923050;3780.12820416;4302.94871809;4503.07692364;4273.97435905;4171.79487166;4205.12820506
4203.58974352;4202.56410250;4958.20512974;4240.12820513;3715.64102453;2172.05127768;-0.00000896;-0.00000896;3349.74358787;4102.69230742;3810.89743500;4300.25641040;4795.51282170;4273.46153853;4172.17948704;4205.12820506
4204.10256404;4203.58974352;4958.33333487;4239.23076923;3677.05128087;2199.10255980;229.99999153;-0.00000896;3349.48717761;4104.99999973;3939.74358912;4300.76923091;4698.84615482;4299.61538476;4171.79487166;4205.12820506
4204.61538455;4203.84615378;4633.71794956;4240.51282052;3774.35897339;2169.61538024;-0.00000896;-0.00000896;3349.74358787;4077.30769196;3911.02564033;4301.02564117;4596.15384692;4274.48717956;4173.20512807;4205.12820506
4204.35897429;4205.12820506;4761.15384727;4240.25641026;3612.82051150;2139.48717504;229.99999153;-0.00000896;3352.43589556;4075.51282017;3841.28205045;4301.02564117;4698.84615482;4299.87179501;4171.53846140;4205.12820506
4204.48717942;4202.82051275;4859.23077055;4239.74358975;3485.38461379;2166.15384178;-0.00000896;-0.00000896;3353.33333146;4106.02564075;3744.87179383;4302.82051296;4733.97436002;4300.25641040;4171.66666653;4205.12820506
4204.23076917;4202.43589737;4989.35897596;4267.56410264;3748.20512717;2171.79486742;229.99999153;-0.00000896;3347.82051095;4106.53846126;3813.84615295;4303.97435912;4633.97435981;4273.33333341;4171.66666653;4205.12820506
4204.61538455;4203.46153840;4532.05128268;4241.66666667;3713.07692197;2201.28204698;-0.00000896;-0.00000896;3315.76922883;4076.79487145;3943.20512758;4303.33333348;4632.17948802;4274.35897443;4172.05128192;4205.12820506
4205.25641019;4205.76923070;4865.25641158;4266.79487187;3749.61538358;2170.89743152;229.99999153;-0.00000896;3319.23076729;4077.56410222;4012.17948670;4304.23076937;4695.38461636;4272.30769238;4172.82051269;4205.12820506
4205.38461532;4206.15384609;4764.74359086;4241.02564103;3583.07692169;2166.15384178;-0.00000896;-0.00000896;3315.12820319;4103.84615357;3776.79487083;4302.56410271;4633.20512904;4299.48717963;4172.05128192;4205.12820506
4207.05128199;4204.35897429;4861.79487312;4266.79487187;3612.30769099;2137.69230325;-0.00000896;-0.00000896;3315.89743396;4076.92307658;3711.53846043;4304.10256425;4897.56410396;4299.48717963;4171.66666653;4205.12820506
4207.82051275;4204.99999993;4864.23077055;4268.07692315;3648.20512696;2139.99999556;-0.00000896;-0.00000896;3315.64102370;4103.71794844;3815.12820423;4302.56410271;4827.05128331;4274.48717956;4171.79487166;4205.12820506
4234.23076923;4204.35897429;4799.35897554;4268.84615392;3644.35897311;2139.87179043;229.99999153;-0.00000896;3317.56410062;4103.20512793;3973.46153791;4303.07692322;4634.61538545;4300.00000014;4172.69230756;4237.94871795
4235.76923077;4205.38461532;4827.82051408;4272.43589751;3711.66666556;2169.23076486;229.99999153;-0.00000896;3318.46153652;4103.07692280;3841.15384532;4304.74358989;4563.20512890;4273.07692315;4171.66666653;4237.94871795
4236.79487180;4206.02564096;4927.94871941;4300.89743604;3650.38461414;2167.94871357;229.99999153;-0.00000896;3322.17948524;4103.84615357;4037.94871754;4302.43589758;4668.33333424;4272.82051289;4170.76923063;4237.94871795
4236.15384616;4206.66666660;4793.20512939;4303.84615399;3650.38461414;2172.43589306;229.99999153;-0.00000896;3322.17948524;4074.48717914;3714.48717838;4303.20512835;4633.71794956;4299.74358989;4171.92307679;4237.94871795
4237.05128206;4205.76923070;4634.87179571;4306.66666681;3744.35897332;2206.92307262;-0.00000896;-0.00000896;3320.51281857;4103.84615357;3913.58974290;4303.07692322;4666.02564193;4299.87179501;4174.74358961;4237.94871795
4234.74358975;4208.46153840;4892.56410396;4332.82051303;3743.33333229;2234.23076500;-0.00000896;-0.00000896;3286.28204927;4075.12820478;4038.07692266;4302.94871809;4631.79487263;4301.41025655;4172.05128192;4238.07692308
4233.84615385;4235.76923077;4799.87179606;4305.38461553;3516.28204976;2232.43589320;-0.00000896;-0.00000896;3283.58974158;4077.56410222;3743.20512717;4303.71794886;4693.46153944;4299.74358989;4171.79487166;4237.94871795
4207.43589737;4235.38461539;4858.46153979;4303.46153860;3683.07692190;2173.84614947;-0.00000896;-0.00000896;3255.51281843;4103.07692280;3780.12820416;4304.23076937;4634.61538545;4274.48717956;4168.84615371;4205.12820506
4204.61538455;4235.25641026;4798.97436016;4273.97435905;3774.99999903;2171.79486742;-0.00000896;-0.00000896;3253.97435689;4106.02564075;3880.12820437;4302.94871809;4730.64102669;4300.76923091;4171.92307679;4205.12820506
4203.20512814;4234.48717949;4831.02564228;4271.28205136;3743.46153742;2171.53845716;-0.00000896;-0.00000896;3252.69230561;4104.10256383;3941.66666605;4302.56410271;4760.38461650;4300.89743604;4172.69230756;4205.12820506
4176.02564089;4208.71794865;4829.23077049;4267.82051289;3709.87179376;2199.10255980;-0.00000896;-0.00000896;3251.15384407;4136.02564082;3777.94871698;4303.84615399;4695.89743687;4300.89743604;4172.56410243;4172.30769217
4175.25641012;4209.10256404;4732.43589848;4267.17948725;3647.30769106;2199.74358544;-0.00000896;-0.00000896;3223.58974144;4109.87179460;3812.30769141;4300.64102578;4696.53846252;4300.64102578;4172.17948704;4172.30769217
4174.35897422;4209.10256404;4863.97436030;4240.76923077;3743.33333229;2199.87179057;-0.00000896;-0.00000896;3223.97435682;4109.61538434;3777.56410160;4302.05128219;4602.17948795;4300.51282066;4172.30769217;4172.30769217
4174.35897422;4235.00000000;4793.46153965;4240.64102564;3709.87179376;2199.74358544;-0.00000896;-0.00000896;3250.38461330;4107.69230742;3651.02563978;4301.15384630;4471.41025690;4300.64102578;4174.10256397;4172.30769217
4175.51282038;4208.97435891;4829.10256536;4240.38461539;3681.15384498;2171.15384178;-0.00000896;-0.00000896;3251.41025433;4109.61538434;3847.82051199;4303.07692322;4828.58974484;4301.79487194;4172.17948704;4172.30769217
4174.99999986;4209.10256404;4797.17948836;4240.51282052;3481.28204969;2173.33332896;-0.00000896;-0.00000896;3250.38461330;4136.92307672;3879.10256334;4301.02564117;4632.43589827;4303.46153860;4172.56410243;4172.30769217
4201.41025634;4207.94871788;4793.46153965;4239.61538462;3741.53846050;2173.46153409;-0.00000896;-0.00000896;3251.02563894;4143.20512800;3680.25640908;4300.38461553;4667.82051373;4300.25641040;4172.82051269;4205.12820506
4201.92307686;4208.07692301;4734.10256515;4239.48717949;3578.33333195;2203.33332903;-0.00000896;-0.00000896;3250.64102356;4139.35897415;3715.89743479;4300.89743604;4664.74359065;4302.05128219;4173.71794858;4205.12820506
4202.82051275;4208.46153840;4892.43589883;4240.25641026;3775.12820416;2199.61538031;-0.00000896;-0.00000896;3250.89743382;4138.71794851;3810.76922987;4299.48717963;4764.61538573;4301.79487194;4172.69230756;4205.12820506
4203.46153840;4207.69230763;4795.00000119;4237.17948718;3613.07692176;2173.20512383;-0.00000896;-0.00000896;3251.92307484;4141.92307672;3943.20512758;4305.00000014;4567.94871865;4301.79487194;4173.20512807;4205.12820506
4205.12820506;4206.41025634;4799.74359093;4237.94871795;3744.87179383;2200.51281621;-0.00000896;-0.00000896;3252.56410048;4171.66666653;3843.33333250;4302.56410271;4537.17948781;4300.76923091;4171.92307679;4205.12820506
4207.30769224;4206.02564096;4961.53846307;4236.41025641;3649.61538337;2200.51281621;-0.00000896;-0.00000896;3255.38461330;4142.69230749;4040.38461497;4301.79487194;4697.17948816;4300.38461553;4173.33333320;4205.12820506
4208.20512814;4204.48717942;4864.48718081;4237.94871795;3647.17948593;2203.84614954;-0.00000896;-0.00000896;3283.97435696;4136.28205108;3741.66666563;4300.38461553;4730.76923182;4301.41025655;4172.82051269;4205.12820506
4208.07692301;4204.61538455;4895.76923216;4237.43589744;3777.05128108;2233.33332910;-0.00000896;-0.00000896;3286.41025440;4137.05128185;3781.15384518;4302.56410271;4666.53846245;4301.53846168;4172.94871781;4205.12820506
4208.58974352;4204.10256404;4693.71794969;4239.23076923;3616.02563971;2234.10255987;-0.00000896;-0.00000896;3286.92307491;4107.82051255;3908.46153777;4300.00000014;4529.48718012;4301.92307707;4173.71794858;4205.12820506
4207.94871788;4205.38461532;4666.02564193;4238.58974359;3744.87179383;2205.38461108;-0.00000896;-0.00000896;3287.43589542;4109.74358947;3844.48717866;4302.69230784;4595.76923154;4301.15384630;4173.07692294;4205.12820506
4206.66666660;4207.05128199;4759.87179599;4239.87179488;3677.17948600;2201.41025211;-0.00000896;-0.00000896;3283.58974158;4140.12820492;3715.12820402;4301.53846168;4566.92307762;4301.15384630;4172.82051269;4205.12820506
4207.30769224;4206.28205122;4695.51282149;4238.71794872;3643.46153721;2234.35897012;-0.00000896;-0.00000896;3255.76922869;4110.51282024;3814.99999910;4301.92307707;4700.89743687;4302.94871809;4172.94871781;4205.12820506
4207.30769224;4234.48717949;4927.05128351;4241.02564103;3678.20512703;2206.53845723;229.99999153;-0.00000896;3254.74358766;4141.02564082;3748.58974255;4274.74358982;4728.97436002;4301.66666681;4174.35897422;4205.12820506
4207.82051275;4234.87179488;4666.41025732;4241.15384616;3713.20512710;2206.66666236;5.38460642;-0.00000896;3251.02563894;4140.76923056;3878.71794796;4301.53846168;4562.17948788;4301.15384630;4174.10256397;4205.12820506
4234.74358975;4235.89743590;4731.02564207;4240.76923077;3516.79487027;2202.94871364;-0.00000896;-0.00000896;3224.35897221;4170.25641012;3774.35897339;4274.48717956;4635.25641109;4301.79487194;4173.58974345;4237.94871795
4235.38461539;4236.15384616;4826.79487305;4240.64102564;3747.05128101;2204.99999570;-0.00000896;-0.00000896;3221.53845939;4168.97435884;3780.76922980;4303.58974373;4635.12820597;4301.41025655;4172.17948704;4237.94871795
4235.25641026;4235.51282052;5223.07692517;4238.84615385;3682.56410139;2204.35897005;229.99999153;-0.00000896;3219.35897221;4168.33333320;3807.69230679;4299.87179501;4859.48718081;4302.05128219;4173.33333320;4237.94871795
4236.79487180;4236.66666667;4602.94871872;4238.97435898;3715.25640915;2202.82050852;229.99999153;-0.00000896;3218.58974144;4168.58974345;4006.28205080;4303.84615399;4666.66666757;4300.12820527;4171.79487166;4237.94871795
4237.17948718;4237.82051282;4699.48718046;4238.97435898;3452.69230603;2201.66666236;229.99999153;-0.00000896;3220.12820298;4171.79487166;3682.30769113;4274.48717956;4562.30769301;4301.53846168;4173.20512807;4237.94871795
4238.58974359;4236.92307693;4634.48718032;4239.74358975;3678.07692190;2199.87179057;229.99999153;-0.00000896;3221.41025426;4172.94871781;3679.35897318;4301.53846168;4598.58974436;4299.61538476;4173.20512807;4237.94871795
4240.38461539;4236.66666667;4732.05128310;4237.30769231;3680.76922959;2200.12820082;229.99999153;-0.00000896;3219.35897221;4201.41025634;3776.53846057;4300.51282066;4700.89743687;4300.89743604;4172.56410243;4237.94871795
4239.35897436;4235.76923077;4765.76923188;4237.30769231;3743.58974255;2201.79486749;229.99999153;-0.00000896;3222.43589529;4175.64102551;3810.89743500;4300.76923091;4696.15384713;4303.84615399;4173.20512807;4237.94871795
4241.53846154;4235.64102564;4765.64102676;4235.76923077;3748.07692204;2202.56409826;229.99999153;-0.00000896;3219.48717734;4174.35897422;4007.43589695;4300.64102578;4595.00000077;4302.69230784;4173.58974345;4237.94871795
4241.02564103;4235.51282052;4798.33333452;4234.74358975;3643.33333209;2201.53845723;229.99999153;-0.00000896;3221.41025426;4174.35897422;3847.82051199;4300.38461553;4628.33333417;4301.79487194;4173.33333320;4237.94871795
4268.20512828;4234.23076923;4891.15384755;4235.25641026;3548.07692162;2202.05127775;229.99999153;-0.00000896;3224.23076708;4201.15384609;3814.23076833;4302.82051296;4760.76923188;4302.94871809;4173.20512807;4270.76923084
4268.07692315;4234.23076923;4989.61538622;4234.87179488;3744.35897332;2203.07691877;229.99999153;-0.00000896;3222.82051067;4173.46153833;3841.41025558;4301.15384630;4832.69230895;4302.82051296;4173.58974345;4270.76923084
4267.56410264;4235.51282052;4661.02564193;4237.05128206;3778.71794775;2204.99999570;229.99999153;-0.00000896;3220.64102349;4168.33333320;3908.33333264;4301.02564117;4666.92307783;4300.89743604;4172.56410243;4270.76923084
4269.48717956;4235.38461539;4796.53846272;4234.61538462;3676.79487062;2204.74358544;229.99999153;-0.00000896;3220.12820298;4170.76923063;3976.92307637;4302.43589758;4663.46153937;4302.94871809;4173.20512807;4270.76923084
4270.76923084;4237.05128206;4766.02564214;4234.10256411;3550.89743444;2234.99999577;229.99999153;-0.00000896;3191.28204906;4201.15384609;3780.51281954;4300.76923091;4628.20512904;4301.41025655;4173.20512807;4270.76923084
4272.05128212;4239.48717949;4763.84615496;4209.10256404;3676.02563985;2234.48717525;229.99999153;-0.00000896;3191.53845932;4201.53846147;3781.79487083;4303.46153860;4598.58974436;4302.69230784;4173.58974345;4270.76923084
4274.74358982;4240.76923077;4632.82051366;4235.25641026;3683.46153728;2232.69230346;229.99999153;-0.00000896;3223.71794657;4175.25641012;3815.25640936;4300.51282066;4697.05128303;4302.69230784;4175.12820499;4270.76923084
4302.17948732;4240.51282052;4962.56410410;4235.25641026;3647.30769106;2233.84614961;229.99999153;-0.00000896;3255.12820305;4173.97435884;3779.74358877;4300.12820527;4764.23077035;4302.43589758;4172.94871781;4303.58974373
4301.15384630;4240.12820513;4666.15384706;4237.43589744;3710.12820402;2233.20512397;229.99999153;-0.00000896;3285.25640825;4174.35897422;3876.53846078;4273.71794879;4564.35897506;4301.53846168;4171.02564089;4303.58974373
4273.07692315;4240.89743590;4728.07692412;4236.41025641;3578.20512682;2232.82050859;229.99999153;-0.00000896;3284.35897235;4202.30769224;3744.99999896;4300.12820527;4694.87179585;4301.15384630;4173.58974345;4270.76923084
4269.48717956;4238.84615385;4602.56410333;4235.51282052;3715.25640915;2202.17948288;229.99999153;-0.00000896;3283.71794671;4203.71794865;3711.41025530;4274.10256418;4630.89743674;4301.41025655;4173.84615371;4270.76923084
4241.41025641;4234.74358975;5126.79487367;4235.76923077;3712.05128094;2172.56409819;229.99999153;-0.00000896;3254.74358766;4203.84615378;3676.66666549;4302.69230784;4630.64102648;4302.30769245;4173.58974345;4237.94871795
4239.87179488;4208.97435891;3977.30769176;4234.74358975;3743.20512717;2166.66666229;229.99999153;-0.00000896;3252.43589536;4235.51282052;4235.64102564;4300.25641040;4044.35897395;4301.28205142;4173.46153833;4237.94871795
4238.07692308;4205.64102558;4240.38461539;4235.64102564;4268.07692315;2138.07691863;229.99999153;-0.00000896;3223.71794657;4235.89743590;4008.07692259;4301.79487194;4105.64102537;4301.79487194;4174.61538448;4237.94871795
4237.69230770;4202.17948711;4140.38461518;4234.74358975;4142.82051262;2140.76922633;229.99999153;-0.00000896;3249.48717741;4236.53846154;3973.71794817;4302.05128219;4070.38461504;4300.76923091;4173.97435884;4237.94871795
4237.69230770;4174.10256397;4235.76923077;4236.02564103;4339.23076944;2139.87179043;229.99999153;-0.00000896;3219.61538247;4208.97435891;3880.25640950;4274.23076930;4332.30769252;4302.43589758;4173.46153833;4237.94871795
4237.94871795;4171.79487166;4234.35897436;4234.87179488;4108.33333306;2170.89743152;229.99999153;-0.00000896;3189.99999778;4203.84615378;4006.92307644;4274.74358982;4171.92307679;4301.66666681;4173.71794858;4237.94871795
4239.35897436;4169.74358961;4141.28205108;4208.20512814;4208.33333327;2167.82050845;229.99999153;-0.00000896;3184.10256188;4203.97435891;3909.10256341;4300.89743604;4307.17948732;4300.38461553;4172.30769217;4237.94871795
4268.20512828;4143.07692287;4168.20512807;4203.46153840;4334.87179508;2170.38461101;229.99999153;-0.00000896;3185.38461316;4205.38461532;4038.71794830;4300.00000014;4006.92307644;4301.53846168;4173.20512807;4270.76923084
4270.76923084;4140.51282031;4208.84615378;4201.92307686;4174.10256397;2171.02563665;229.99999153;-0.00000896;3189.74358752;4169.99999986;3910.64102495;4273.58974366;4239.87179488;4303.58974373;4171.15384602;4270.76923084
4273.46153853;4138.97435877;4106.79487152;4174.48717935;4203.97435891;2199.87179057;229.99999153;-0.00000896;3219.87179272;4141.02564082;4273.07692315;4300.89743604;4138.07692287;4301.28205142;4173.20512807;4270.64102571
4299.61538476;4139.10256390;4470.76923126;4173.71794858;4465.00000049;2204.99999570;229.99999153;-0.00000896;3221.28204913;4107.30769203;4139.23076903;4274.35897443;4202.94871788;4301.92307707;4172.69230756;4303.46153860
4301.28205142;4139.99999980;4044.74358933;4171.28205115;4303.20512835;2202.69230339;229.99999153;-0.00000896;3249.61538253;4076.02564068;4072.94871761;4299.87179501;4271.92307700;4300.76923091;4172.69230756;4303.46153860
4302.43589758;4143.07692287;4172.56410243;4168.71794858;3972.30769176;2173.20512383;229.99999153;-0.00000896;3283.33333132;4073.97435863;4041.41025600;4274.61538469;4206.15384609;4303.07692322;4172.56410243;4303.46153860
4303.84615399;4141.66666646;4307.30769245;4168.84615371;4207.05128199;2198.97435467;229.99999153;-0.00000896;3289.23076722;4042.69230728;4106.53846126;4271.92307700;4336.02564124;4300.12820527;4172.94871781;4303.46153860
4303.20512835;4168.20512807;4207.17948711;4143.33333313;4168.46153833;2206.79486749;-0.00000896;-0.00000896;3318.07692114;4011.79487131;3974.10256355;4302.69230784;4175.25641012;4300.64102578;4172.56410243;4303.46153860
4303.46153860;4172.56410243;4433.71794914;4169.74358961;4269.61538469;2232.43589320;-0.00000896;-0.00000896;3321.53845960;4008.97435849;4175.64102551;4300.51282066;4104.87179460;4301.28205142;4172.30769217;4303.46153860
4304.48717963;4175.64102551;4339.23076944;4171.15384602;3974.99999945;2235.38461115;229.99999153;-0.00000896;3350.38461351;4039.10256369;4270.00000007;4301.79487194;4303.97435912;4274.61538469;4171.92307679;4303.46153860
4303.58974373;4202.94871788;4471.28205177;4172.17948704;4169.23076910;2235.64102141;-0.00000896;-0.00000896;3353.58974172;4010.89743541;4173.71794858;4299.87179501;4365.12820541;4300.00000014;4172.43589730;4303.46153860
4302.43589758;4205.89743583;4333.71794893;4171.92307679;4302.30769245;2233.07691884;-0.00000896;-0.00000896;3382.17948538;4011.79487131;4139.48717928;4273.58974366;4435.00000042;4300.12820527;4171.28205115;4303.46153860
4302.30769245;4207.94871788;5290.76923300;4173.46153833;5159.35897631;2202.17948288;-0.00000896;-0.00000896;3382.30769050;4011.66666618;3813.46153756;4302.05128219;5155.38461733;4299.87179501;4172.56410243;4303.46153860
4301.41025655;4234.23076923;5319.48718178;4173.58974345;3807.56410166;2205.64102134;-0.00000896;-0.00000896;3354.10256223;4041.66666625;3481.79487020;4301.28205142;5350.12820749;4274.61538469;4171.92307679;4303.46153860
4301.53846168;4238.07692308;5124.61538650;4201.28205122;3906.79487110;2205.64102134;-0.00000896;-0.00000896;3353.20512633;4042.30769189;3841.92307609;4300.76923091;5124.23077111;4301.41025655;4171.92307679;4303.58974373
4302.69230784;4240.64102564;5287.05128428;4204.74358968;4073.20512786;2205.64102134;-0.00000896;-0.00000896;3350.38461351;4072.05128171;3584.35897297;4300.64102578;5352.43589980;4300.38461553;4171.79487166;4303.58974373
4302.94871809;4267.69230777;5255.25641241;4206.79487173;3973.33333278;2203.97435467;-0.00000896;-0.00000896;3349.23076736;4070.89743555;3644.61538337;4299.48717963;5288.84615607;4300.51282066;4173.33333320;4303.58974373
4301.15384630;4269.10256418;4864.87179620;4208.58974352;3841.15384532;2173.97435460;-0.00000896;-0.00000896;3350.51281864;4076.53846119;3813.97435807;4301.92307707;4698.07692405;4300.00000014;4172.43589730;4303.58974373
4274.35897443;4269.74358982;3749.61538358;4208.33333327;3811.02564013;2172.43589306;-0.00000896;-0.00000896;3350.76922890;4103.33333306;4661.28205219;4302.82051296;4043.07692266;4299.61538476;4172.05128192;4270.76923084
4272.17948725;4270.89743597;4208.46153840;4235.89743590;3906.79487110;2199.35897005;-0.00000896;-0.00000896;3350.38461351;4106.02564075;4171.79487166;4301.41025655;4170.76923063;4300.89743604;4169.48717935;4270.76923084
4269.74358982;4271.02564110;4274.74358982;4237.43589744;4010.64102516;2173.84614947;-0.00000896;-0.00000896;3350.89743403;4105.25640998;4109.23076896;4299.74358989;4336.92307714;4299.74358989;4172.17948704;4270.76923084
4241.92307693;4271.15384623;4340.00000021;4239.23076923;4135.76923056;2167.43589306;-0.00000896;-0.00000896;3351.02563915;4108.71794844;4238.33333334;4302.56410271;4300.12820527;4300.12820527;4172.05128192;4237.94871795
4239.61538462;4270.12820520;4365.25641054;4241.41025641;4044.61538420;2167.05127768;-0.00000896;-0.00000896;3352.94871608;4137.05128185;4269.35897443;4301.41025655;4205.64102558;4302.17948732;4171.92307679;4237.94871795
4234.48717949;4269.10256418;4171.53846140;4268.58974366;3946.53846092;2170.25640588;-0.00000896;-0.00000896;3350.38461351;4138.33333313;4038.33333292;4301.79487194;4209.10256404;4301.02564117;4172.82051269;4237.94871795
4206.28205122;4266.66666674;4825.00000125;4241.53846154;5059.23077097;2166.53845716;-0.00000896;-0.00000896;3320.25640831;4138.97435877;3908.07692239;4301.53846168;4667.43589834;4300.51282066;4172.82051269;4205.12820506
4203.33333327;4239.23076923;5022.94871962;4266.79487187;4635.64102648;2137.30768786;-0.00000896;-0.00000896;3320.12820319;4141.02564082;3714.74358864;4299.74358989;5061.53846328;4301.41025655;4172.94871781;4205.12820506
4203.07692301;4236.28205129;5350.12820749;4267.30769238;4764.48718060;2136.92307248;-0.00000896;-0.00000896;3315.25640831;4168.33333320;3679.48717831;4301.79487194;5323.07692537;4301.92307707;4172.94871781;4205.12820506
4201.92307686;4234.23076923;5290.76923300;4269.87179495;3973.46153791;2139.99999556;-0.00000896;-0.00000896;3286.53845953;4170.76923063;3677.69230651;4302.05128219;5222.17948927;4302.94871809;4172.82051269;4205.12820506
4204.35897429;4208.84615378;5158.20513015;4273.46153853;4240.38461539;2168.58973922;-0.00000896;-0.00000896;3283.20512619;4139.35897415;3746.92307588;4300.25641040;5152.82051477;4300.89743604;4172.82051269;4205.12820506
4204.74358968;4208.33333327;4930.64102710;4273.33333341;4109.35897408;2168.33332896;-0.00000896;-0.00000896;3283.58974158;4139.87179467;3976.02564047;4274.61538469;4930.25641172;4301.92307707;4172.69230756;4205.12820506
4204.99999993;4206.53846147;4894.48718088;4274.35897443;4272.69230777;2169.23076486;-0.00000896;-0.00000896;3282.17948517;4137.56410236;3873.58974283;4299.61538476;4924.23077069;4301.92307707;4173.07692294;4205.12820506
4205.12820506;4205.76923070;4207.05128199;4299.48717963;4075.25640991;2168.97435460;-0.00000896;-0.00000896;3282.17948517;4136.15384595;4236.02564103;4299.61538476;4109.23076896;4302.05128219;4172.82051269;4205.12820506
4205.51282045;4206.41025634;4273.20512828;4300.64102578;3977.82051227;2173.97435460;-0.00000896;-0.00000896;3257.05127997;4138.71794851;3974.23076868;4299.87179501;4071.66666632;4300.89743604;4175.76923063;4205.12820506
4205.25641019;4206.66666660;3976.66666611;4300.38461553;4105.25640998;2174.10255973;-0.00000896;-0.00000896;3257.30769023;4137.05128185;4172.05128192;4300.89743604;4175.89743576;4302.69230784;4172.43589730;4205.12820506
4205.64102558;4207.43589737;4241.41025641;4302.30769245;4005.12820465;2201.28204698;-0.00000896;-0.00000896;3256.15384407;4110.38461511;3874.87179411;4299.48717963;4175.12820499;4300.89743604;4173.20512807;4205.12820506
4205.38461532;4208.20512814;4433.33333375;4301.66666681;4076.15384581;2203.46153416;229.99999153;-0.00000896;3256.53845946;4135.38461518;4139.10256390;4301.92307707;4465.38461587;4301.15384630;4172.82051269;4205.12820506
4204.23076917;4208.97435891;4073.46153812;4302.82051296;4305.25641040;2202.30768800;229.99999153;-0.00000896;3256.15384407;4108.84615357;4011.41025593;4274.74358982;4204.61538455;4305.12820527;4172.69230756;4205.12820506
4204.10256404;4208.84615378;4238.97435898;4302.82051296;3781.28205031;2204.61538031;229.99999153;-0.00000896;3252.69230561;4141.41025621;4208.20512814;4299.87179501;4174.23076910;4302.82051296;4173.20512807;4205.12820506
