Gyro-X;Gyro-Z;AF3;Gyro-Y;T7;Acc-X;Pz;QualityData_1;QualityData_2;Acc-Z;Acc-Y;T8;Mag-X;AF4;Mag-Z;Mag-Y;Mag-X;Gyro-X 
4201.66666660;4202.30769224;4530.38461601;4238.33333334;3616.79487048;2166.53845716;229.99999153;-0.00000896;3384.23076743;4007.69230721;3975.51281996;4301.53846168;4595.89743667;4300.51282066;4169.74358961;4205.12820506
4201.15384609;4202.30769224;4699.23077021;4238.33333334;3647.43589619;2141.41025197;229.99999153;-0.00000896;3386.02563922;4005.38461490;3747.30769127;4301.15384630;4664.74359065;4301.02564117;4168.20512807;4205.12820506
4175.76923063;4201.92307686;4764.10256522;4239.35897436;3715.25640915;2138.07691863;229.99999153;-0.00000896;3413.33333160;4037.82051241;3679.87179369;4301.92307707;4534.48718012;4300.00000014;4169.74358961;4172.30769217
4174.61538448;4201.15384609;4865.51282184;4240.12820513;3747.69230665;2140.51281607;229.99999153;-0.00000896;3384.48717768;4037.43589702;3779.74358877;4300.38461553;4698.20512918;4301.41025655;4171.41025628;4172.30769217
4172.82051269;4201.15384609;4562.30769301;4238.46153847;3811.15384525;2169.35896999;229.99999153;-0.00000896;3354.48717761;4006.66666618;3841.66666584;4302.94871809;4468.84615434;4300.25641040;4169.74358961;4172.30769217
4172.43589730;4201.28205122;4761.41025753;4237.82051282;3679.99999882;2167.43589306;229.99999153;-0.00000896;3351.92307505;4009.10256362;3840.25640943;4299.87179501;4599.61538538;4300.38461553;4169.99999986;4172.30769217
4172.43589730;4201.79487173;4762.30769342;4235.76923077;3678.84615267;2136.66666222;229.99999153;-0.00000896;3351.02563915;4007.56410208;3779.23076826;4274.23076930;4468.97435946;4301.15384630;4169.61538448;4172.30769217
4173.20512807;4175.51282038;4862.69230902;4209.10256404;3650.51281927;2135.12820068;229.99999153;-0.00000896;3352.82051095;4040.12820472;3648.33333209;4301.53846168;4699.35897534;4301.02564117;4169.87179474;4172.30769217
4172.56410243;4175.38461525;4858.58974491;4234.10256411;3841.66666584;2133.84614940;229.99999153;-0.00000896;3351.53845967;4040.76923036;3912.30769162;4300.76923091;4660.64102655;4300.64102578;4170.12820499;4172.30769217
4174.23076910;4175.12820499;4633.33333417;4207.56410250;3611.66666535;2135.76922633;229.99999153;-0.00000896;3354.99999813;4011.66666618;3907.94871726;4299.87179501;4661.79487270;4300.76923091;4169.74358961;4172.30769217
4175.12820499;4173.33333320;4893.33333473;4207.82051275;3746.41025537;2134.87179043;229.99999153;-0.00000896;3380.64102384;4012.05128157;4004.99999952;4301.53846168;4666.79487270;4300.76923091;4170.25641012;4172.30769217
4175.25641012;4173.84615371;4798.58974477;4207.43589737;3546.15384470;2139.48717504;229.99999153;-0.00000896;3381.92307512;4012.17948670;3710.38461428;4302.17948732;4602.69230846;4300.25641040;4169.99999986;4172.30769217
4175.64102551;4174.23076910;4825.89743715;4207.30769224;3714.23076812;2138.84614940;229.99999153;-0.00000896;3383.84615204;4008.58974311;3711.92307582;4304.48717963;4760.51282163;4300.51282066;4171.41025628;4172.30769217
4175.64102551;4174.35897422;4989.61538622;4208.07692301;3844.23076840;2166.28204691;229.99999153;-0.00000896;3385.89743409;4005.89743541;3938.84615322;4299.74358989;4826.02564228;4300.00000014;4169.87179474;4172.30769217
4176.28205115;4175.25641012;4537.17948781;4207.94871788;3742.17948614;2135.12820068;229.99999153;-0.00000896;3414.35897263;3978.97435842;3909.99999931;4302.56410271;4503.97435953;4301.02564117;4170.38461525;4172.30769217
4175.38461525;4175.12820499;4564.61538531;4208.58974352;3746.92307588;2136.41025197;229.99999153;-0.00000896;3417.17948545;4007.69230721;3749.35897332;4302.05128219;4437.69230811;4300.51282066;4169.99999986;4172.30769217
4174.35897422;4174.74358961;4731.28205233;4234.61538462;3613.58974227;2169.10255973;229.99999153;-0.00000896;3414.74358801;3977.56410201;3944.35897374;4301.79487194;4535.51282114;4299.48717963;4143.46153826;4172.30769217
4174.48717935;4175.38461525;4628.84615468;4235.38461539;3683.07692190;2167.30768793;229.99999153;-0.00000896;3413.33333160;3978.07692252;3681.53846036;4301.15384630;4628.20512904;4300.51282066;4169.99999986;4172.30769217
4174.10256397;4201.02564096;4958.33333487;4235.00000000;3714.23076812;2140.12820068;229.99999153;-0.00000896;3416.15384442;4008.46153798;3777.94871698;4300.89743604;4832.69230895;4299.74358989;4169.99999986;4172.30769217
4173.20512807;4175.89743576;4629.10256494;4236.53846154;3749.48717845;2135.12820068;229.99999153;-0.00000896;3417.30769057;4006.41025593;3876.28205052;4301.02564117;4568.71794942;4301.15384630;4171.15384602;4172.30769217
4172.82051269;4175.76923063;4730.38461643;4235.12820513;3677.17948600;2139.48717504;229.99999153;-0.00000896;3417.05128032;4007.30769183;3945.38461476;4301.79487194;4602.82051359;4301.53846168;4169.23076910;4172.30769217
4173.46153833;4176.02564089;4799.23077042;4235.64102564;3613.33333202;2166.41025204;229.99999153;-0.00000896;3386.02563922;4009.48717900;3678.71794754;4302.17948732;4632.94871879;4301.53846168;4170.12820499;4172.30769217
4174.23076910;4201.02564096;4766.02564214;4236.02564103;3715.64102453;2166.15384178;229.99999153;-0.00000896;3386.53845974;4009.99999952;3777.82051185;4301.41025655;4698.58974457;4301.92307707;4170.38461525;4172.30769217
4175.12820499;4201.79487173;4865.25641158;4236.92307693;3648.84615260;2167.69230332;229.99999153;-0.00000896;3386.92307512;4005.38461490;3879.48717873;4303.71794886;4831.41025766;4299.48717963;4169.35897422;4172.30769217
4175.89743576;4201.79487173;4764.23077035;4237.56410257;3710.25640915;2168.97435460;229.99999153;-0.00000896;3386.02563922;4006.28205080;3978.20512765;4301.28205142;4665.64102655;4274.48717956;4169.99999986;4172.30769217
4201.66666660;4202.56410250;4761.66666778;4236.53846154;3714.48717838;2140.38461094;229.99999153;-0.00000896;3385.89743409;4005.12820465;3776.28205031;4274.48717956;4533.71794935;4299.87179501;4170.38461525;4205.12820506
4202.56410250;4202.43589737;4830.12820638;4237.05128206;3449.74358808;2139.61538017;229.99999153;-0.00000896;3386.79486999;4012.17948670;3749.10256306;4302.82051296;4698.97435995;4300.12820527;4170.51282038;4205.12820506
4203.20512814;4203.97435891;4995.38461699;4238.07692308;3776.28205031;2166.53845716;229.99999153;-0.00000896;3386.66666486;4009.35897388;3845.76922994;4301.41025655;4795.89743708;4302.05128219;4169.35897422;4205.12820506
4203.07692301;4202.94871788;4731.53846258;4238.07692308;3714.87179376;2140.76922633;229.99999153;-0.00000896;3386.41025461;4009.35897388;3880.89743514;4301.28205142;4634.23077007;4301.79487194;4170.64102551;4205.12820506
4204.10256404;4202.30769224;4796.92307811;4238.97435898;3580.38461400;2137.30768786;229.99999153;-0.00000896;3384.23076743;4011.15384567;3907.43589674;4301.79487194;4726.79487284;4300.38461553;4170.25641012;4205.12820506
4203.97435891;4203.58974352;4826.15384741;4239.23076923;3644.99999875;2139.61538017;229.99999153;-0.00000896;3383.71794692;4037.94871754;3779.48717852;4302.69230784;4766.15384727;4300.76923091;4169.99999986;4205.12820506
4203.33333327;4203.71794865;4831.92307818;4238.46153847;3782.17948621;2140.25640581;229.99999153;-0.00000896;3383.71794692;4009.87179439;3940.51281989;4301.28205142;4599.48718026;4301.41025655;4170.25641012;4205.12820506
4204.48717942;4203.20512814;4863.97436030;4239.23076923;3643.07692183;2168.58973922;-0.00000896;-0.00000896;3355.64102377;4005.64102516;3875.76923001;4302.56410271;4666.92307783;4301.79487194;4168.33333320;4205.12820506
4204.23076917;4203.97435891;4892.82051421;4238.46153847;3745.76922973;2168.71794434;-0.00000896;-0.00000896;3354.74358787;4005.64102516;3909.74358905;4301.15384630;4660.89743680;4300.12820527;4169.99999986;4205.12820506
4204.74358968;4204.23076917;4733.58974464;4238.07692308;3679.23076805;2137.82050838;229.99999153;-0.00000896;3354.87179300;4007.17948670;3708.97435787;4301.92307707;4566.02564172;4301.66666681;4170.25641012;4205.12820506
4204.74358968;4204.23076917;4761.02564214;4237.69230770;3682.43589626;2138.97435453;-0.00000896;-0.00000896;3382.82051102;4008.97435849;3677.69230651;4303.07692322;4728.58974464;4300.25641040;4169.87179474;4205.12820506
4203.71794865;4204.23076917;4695.89743687;4237.17948718;3743.20512717;2139.99999556;-0.00000896;-0.00000896;3355.76922890;4009.23076875;3813.20512731;4274.35897443;4567.94871865;4301.15384630;4169.99999986;4205.12820506
4203.46153840;4204.74358968;5059.61538636;4237.56410257;3846.02564020;2167.43589306;-0.00000896;-0.00000896;3354.35897249;4007.56410208;3807.43589654;4301.66666681;4826.92307818;4300.64102578;4170.51282038;4205.12820506
4204.61538455;4204.61538455;4766.15384727;4238.71794872;3648.07692183;2139.23076479;-0.00000896;-0.00000896;3355.25640838;4010.25640977;3977.30769176;4300.38461553;4629.10256494;4300.89743604;4170.12820499;4205.12820506
4205.12820506;4205.51282045;4825.64102690;4236.28205129;3519.23076771;2140.12820068;-0.00000896;-0.00000896;3381.02563922;4037.43589702;3812.30769141;4303.46153860;4695.64102662;4274.10256418;4169.48717935;4205.12820506
4203.46153840;4205.51282045;4830.51282177;4235.51282052;3716.15384505;2139.74358530;-0.00000896;-0.00000896;3380.89743409;4042.17948677;3681.53846036;4302.69230784;4761.92307804;4301.02564117;4170.51282038;4205.12820506
4202.69230763;4203.58974352;4831.53846279;4236.79487180;3677.56410139;2166.66666229;-0.00000896;-0.00000896;3354.61538274;4037.82051241;3842.30769148;4301.53846168;4729.10256515;4274.61538469;4171.15384602;4205.12820506
4202.82051275;4204.99999993;4759.74359086;4234.87179488;3681.28205010;2169.35896999;-0.00000896;-0.00000896;3353.20512633;4036.92307651;3809.87179397;4301.79487194;4597.17948795;4301.53846168;4170.51282038;4205.12820506
4201.79487173;4204.61538455;4668.33333424;4235.12820513;3649.74358850;2140.12820068;-0.00000896;-0.00000896;3353.33333146;4011.41025593;3874.48717873;4301.28205142;4635.76923161;4299.48717963;4169.99999986;4205.12820506
4202.82051275;4204.99999993;4829.35897561;4233.84615385;3714.23076812;2140.89743145;-0.00000896;-0.00000896;3355.76922890;4038.33333292;3840.38461455;4301.66666681;4595.25641102;4301.66666681;4170.25641012;4205.12820506
4203.71794865;4204.61538455;4797.30769349;4234.10256411;3646.15384491;2139.48717504;-0.00000896;-0.00000896;3382.82051102;4038.33333292;3874.10256334;4301.66666681;4731.79487284;4301.02564117;4171.15384602;4205.12820506
4202.94871788;4204.87179481;4993.58974519;4235.25641026;3711.92307582;2141.02563658;-0.00000896;-0.00000896;3381.28204948;4042.17948677;3873.97435821;4300.51282066;4798.84615503;4300.51282066;4170.38461525;4205.12820506
4202.82051275;4203.58974352;4797.94871913;4235.00000000;3712.05128094;2139.23076479;-0.00000896;-0.00000896;3383.58974179;4043.71794830;3812.30769141;4301.15384630;4596.15384692;4299.74358989;4142.69230749;4205.12820506
4204.10256404;4203.71794865;4632.94871879;4233.84615385;3714.23076812;2168.84614947;-0.00000896;-0.00000896;3384.35897256;4038.84615343;3776.53846057;4302.30769245;4504.10256466;4300.51282066;4170.38461525;4205.12820506
4203.71794865;4203.20512814;4765.38461650;4237.05128206;3616.41025509;2169.99999563;-0.00000896;-0.00000896;3383.46153666;4040.51282010;3874.74358898;4302.17948732;4469.35897485;4301.28205142;4171.41025628;4205.12820506
4203.71794865;4203.58974352;4531.28205191;4236.66666667;3782.05128108;2166.28204691;-0.00000896;-0.00000896;3382.30769050;4037.56410215;3714.23076812;4300.00000014;4567.94871865;4300.25641040;4170.12820499;4205.12820506
4203.71794865;4203.71794865;4897.30769370;4237.30769231;3709.87179376;2138.84614940;-0.00000896;-0.00000896;3383.71794692;4039.74358933;3744.87179383;4301.28205142;4730.00000105;4300.89743604;4170.64102551;4205.12820506
4203.84615378;4203.07692301;4699.87179585;4237.69230770;3714.87179376;2139.10255966;-0.00000896;-0.00000896;3381.28204948;4039.35897395;3906.41025572;4274.23076930;4566.53846224;4299.87179501;4174.87179474;4205.12820506
4203.71794865;4203.97435891;4635.12820597;4236.92307693;3647.82051157;2171.02563665;-0.00000896;-0.00000896;3353.58974172;4037.43589702;3748.58974255;4301.92307707;4563.33333403;4300.25641040;4170.38461525;4205.12820506
4204.10256404;4204.99999993;4796.53846272;4237.69230770;3676.53846036;2141.41025197;-0.00000896;-0.00000896;3353.71794685;4011.28205080;3709.61538351;4299.74358989;4501.79487235;4301.41025655;4170.64102551;4205.12820506
4204.48717942;4204.87179481;4631.28205212;4236.53846154;3647.69230645;2141.15384171;-0.00000896;-0.00000896;3355.64102377;4040.25640984;3746.41025537;4300.38461553;4700.76923175;4301.79487194;4170.25641012;4205.12820506
4202.30769224;4204.61538455;4895.38461678;4236.41025641;3712.69230658;2134.87179043;-0.00000896;-0.00000896;3383.46153666;4042.69230728;3812.05128115;4302.56410271;4794.10256529;4300.89743604;4172.69230756;4205.12820506
4202.17948711;4203.07692301;4697.94871893;4235.12820513;3711.41025530;2140.89743145;-0.00000896;-0.00000896;3355.38461351;4069.87179453;4011.02564054;4301.02564117;4594.87179564;4301.28205142;4170.38461525;4205.12820506
4202.05128199;4203.20512814;4733.33333438;4233.84615385;3614.74358843;2140.51281607;-0.00000896;-0.00000896;3354.99999813;4040.51282010;3774.35897339;4274.35897443;4635.38461622;4301.02564117;4169.74358961;4205.12820506
4202.05128199;4202.69230763;4792.43589862;4235.64102564;3645.25640901;2166.28204691;-0.00000896;-0.00000896;3353.33333146;4041.92307651;3747.30769127;4301.92307707;4629.74359058;4300.64102578;4170.25641012;4205.12820506
4201.79487173;4202.43589737;4894.48718088;4236.41025641;3749.10256306;2139.99999556;229.99999153;-0.00000896;3351.66666479;4043.97435856;3841.53846071;4301.79487194;4857.94871927;4274.61538469;4170.12820499;4205.12820506
4176.15384602;4202.56410250;4496.92307748;4235.64102564;3682.30769113;2140.64102120;229.99999153;-0.00000896;3355.51281864;4070.89743555;3938.58974297;4299.74358989;4534.61538524;4301.15384630;4170.38461525;4172.30769217
4176.15384602;4203.20512814;4826.66666792;4236.79487180;3683.58974241;2166.66666229;229.99999153;-0.00000896;3355.25640838;4044.10256369;3907.17948649;4302.05128219;4602.69230846;4300.51282066;4170.51282038;4172.30769217
4176.15384602;4202.82051275;4829.48718074;4236.92307693;3645.38461414;2169.35896999;229.99999153;-0.00000896;3354.99999813;4039.10256369;3747.82051178;4301.28205142;4628.20512904;4274.23076930;4169.10256397;4172.30769217
4175.38461525;4201.92307686;4795.38461657;4235.89743590;3776.92307595;2167.17948281;-0.00000896;-0.00000896;3353.84615197;4042.94871754;3945.89743528;4274.61538469;4759.23077035;4301.15384630;4170.89743576;4172.30769217
4175.12820499;4202.05128199;5025.76923244;4236.79487180;3743.84615281;2141.15384171;-0.00000896;-0.00000896;3354.48717761;4042.82051241;3909.87179418;4301.02564117;4829.10256536;4300.51282066;4170.89743576;4172.30769217
4174.61538448;4202.43589737;4668.58974450;4235.89743590;3680.12820395;2140.51281607;229.99999153;-0.00000896;3354.48717761;4070.89743555;3909.87179418;4300.51282066;4532.05128268;4300.25641040;4170.64102551;4172.30769217
4175.38461525;4201.92307686;4667.30769321;4236.53846154;3749.23076819;2139.23076479;-0.00000896;-0.00000896;3355.12820326;4071.66666632;3680.12820395;4301.41025655;4468.20512870;4300.51282066;4171.02564089;4172.30769217
4174.99999986;4175.89743576;4796.41025760;4236.15384616;3614.35897304;2167.82050845;229.99999153;-0.00000896;3354.23076736;4044.35897395;3908.20512751;4299.74358989;4600.51282128;4302.43589758;4170.12820499;4172.30769217
4176.02564089;4201.41025634;4497.43589800;4236.53846154;3748.20512717;2168.20512383;-0.00000896;-0.00000896;3354.48717761;4070.25640991;3711.28205017;4301.92307707;4563.71794942;4301.15384630;4171.02564089;4172.30769217
4201.28205122;4176.15384602;4926.28205275;4237.30769231;3774.87179390;2169.10255973;229.99999153;-0.00000896;3352.43589556;4042.43589702;3880.64102488;4300.38461553;4693.97435995;4274.74358982;4170.76923063;4205.12820506
4201.15384609;4176.15384602;4763.20512932;4237.69230770;3710.89743479;2138.20512376;-0.00000896;-0.00000896;3355.25640838;4043.07692266;3812.56410166;4302.30769245;4697.94871893;4301.41025655;4171.02564089;4205.12820506
4176.02564089;4175.12820499;4765.00000112;4235.89743590;3648.71794747;2139.23076479;229.99999153;-0.00000896;3382.56410076;4070.25640991;3940.25640963;4300.64102578;4696.66666764;4300.89743604;4170.38461525;4172.30769217
4172.82051269;4173.33333320;5060.25641200;4237.30769231;3646.92307568;2140.89743145;-0.00000896;-0.00000896;3355.38461351;4070.12820478;3680.51281934;4300.38461553;4730.00000105;4302.69230784;4168.46153833;4172.30769217
4171.41025628;4173.58974345;4667.69230860;4237.43589744;3680.76922959;2168.58973922;229.99999153;-0.00000896;3350.76922890;4042.43589702;3782.05128108;4302.82051296;4666.66666757;4301.53846168;4172.56410243;4172.30769217
4171.41025628;4174.10256397;5024.35897603;4236.02564103;3644.23076798;2167.17948281;-0.00000896;-0.00000896;3351.66666479;4041.53846113;3778.97435801;4301.66666681;4794.74359093;4302.17948732;4170.51282038;4172.30769217
4169.99999986;4173.20512807;4664.10256501;4236.66666667;3743.97435794;2166.15384178;229.99999153;-0.00000896;3352.05128018;4041.15384574;3940.51281989;4299.74358989;4600.76923154;4301.53846168;4171.02564089;4172.30769217
4169.35897422;4172.56410243;4697.94871893;4236.02564103;3448.84615218;2137.94871351;-0.00000896;-0.00000896;3351.53845967;4038.97435856;3676.66666549;4300.00000014;4602.69230846;4302.43589758;4170.25641012;4172.30769217
4169.23076910;4172.82051269;4632.56410340;4236.28205129;3780.12820416;2139.10255966;229.99999153;-0.00000896;3350.38461351;4011.79487131;3612.43589612;4301.79487194;4635.51282135;4300.00000014;4143.20512800;4172.30769217
4170.12820499;4172.82051269;4732.69230874;4235.38461539;3716.02563992;2140.64102120;-0.00000896;-0.00000896;3349.87179300;4038.07692266;3905.76923008;4300.89743604;4726.66666771;4301.41025655;4171.02564089;4172.30769217
4170.89743576;4173.71794858;4731.53846258;4235.00000000;3650.64102439;2168.71794434;229.99999153;-0.00000896;3322.56410062;4036.92307651;3939.61538399;4302.30769245;4629.87179571;4300.12820527;4170.89743576;4172.30769217
4171.92307679;4173.84615371;4825.00000125;4235.64102564;3742.43589640;2168.97435460;-0.00000896;-0.00000896;3350.25640838;4011.92307644;3939.99999938;4302.17948732;4694.23077021;4301.53846168;4170.12820499;4172.30769217
4171.92307679;4173.46153833;4830.25641151;4234.35897436;3611.92307561;2140.64102120;229.99999153;-0.00000896;3351.53845967;4037.56410215;3748.07692204;4274.48717956;4667.82051373;4300.12820527;4171.02564089;4172.30769217
4172.43589730;4175.64102551;4892.30769370;4234.48717949;3742.05128101;2166.92307255;-0.00000896;-0.00000896;3351.02563915;4009.61538413;3775.89743493;4300.64102578;4925.51282198;4300.76923091;4170.64102551;4172.30769217
4172.56410243;4175.12820499;4864.10256543;4234.74358975;3683.97435780;2167.05127768;229.99999153;-0.00000896;3348.97435710;4010.51282003;3710.25640915;4301.66666681;4664.74359065;4301.53846168;4170.38461525;4172.30769217
4173.20512807;4174.99999986;4793.46153965;4233.84615385;3742.69230665;2166.15384178;-0.00000896;-0.00000896;3351.66666479;4008.84615336;3971.53846099;4301.53846168;4564.23076993;4300.38461553;4170.25641012;4172.30769217
4172.56410243;4175.76923063;4665.38461629;4234.10256411;3681.79487062;2167.82050845;229.99999153;-0.00000896;3354.23076736;4037.43589702;3843.84615302;4303.07692322;4562.43589813;4274.10256418;4170.76923063;4172.30769217
4173.71794858;4176.02564089;4764.10256522;4234.35897436;3516.53846001;2168.84614947;-0.00000896;-0.00000896;3354.23076736;4011.66666618;3716.28205017;4299.87179501;4664.61538552;4300.38461553;4170.76923063;4172.30769217
4174.74358961;4176.02564089;4630.38461622;4235.64102564;3775.76922980;2169.87179050;229.99999153;-0.00000896;3354.99999813;4041.02564061;3714.87179376;4302.43589758;4697.94871893;4300.64102578;4170.51282038;4172.30769217
4175.89743576;4201.41025634;4764.87179599;4236.66666667;3746.41025537;2139.61538017;-0.00000896;-0.00000896;3380.51281871;4041.15384574;3906.66666598;4301.41025655;4563.46153916;4301.79487194;4171.66666653;4172.30769217
4175.89743576;4202.05128199;4797.30769349;4236.15384616;3548.84615239;2169.10255973;229.99999153;-0.00000896;3380.51281871;4041.28205087;3842.56410173;4303.58974373;4694.10256508;4300.38461553;4170.64102551;4172.30769217
4175.76923063;4202.43589737;4762.82051394;4237.69230770;3681.28205010;2169.48717511;-0.00000896;-0.00000896;3355.76922890;4011.15384567;3878.46153770;4302.30769245;4667.82051373;4300.89743604;4170.89743576;4172.30769217
4176.02564089;4201.79487173;4831.92307818;4237.05128206;3713.71794761;2172.30768793;229.99999153;-0.00000896;3354.23076736;4040.76923036;3808.20512731;4299.48717963;4663.20512911;4301.15384630;4170.38461525;4172.30769217
4175.76923063;4202.17948711;4665.76923168;4236.66666667;3584.10256272;2140.25640581;-0.00000896;-0.00000896;3355.12820326;4041.28205087;3843.84615302;4302.05128219;4700.76923175;4300.25641040;4172.05128192;4172.30769217
4173.71794858;4175.89743576;4765.89743701;4236.53846154;3743.20512717;2166.41025204;-0.00000896;-0.00000896;3353.71794685;4038.84615343;3840.64102481;4301.66666681;4501.66666723;4302.56410271;4170.51282038;4172.30769217
4174.48717935;4201.41025634;4635.00000084;4238.07692308;3677.56410139;2166.92307255;7.94870899;-0.00000896;3350.51281864;4042.17948677;3809.10256320;4300.89743604;4660.89743680;4300.00000014;4170.51282038;4172.30769217
4174.61538448;4201.28205122;4729.87179592;4237.43589744;3512.43589591;2168.07691870;229.99999153;-0.00000896;3351.15384428;4041.41025600;3807.17948628;4274.74358982;4668.20512911;4299.87179501;4170.64102551;4172.30769217
4174.99999986;4201.53846147;4759.10256522;4238.33333334;3743.97435794;2169.10255973;229.99999153;-0.00000896;3350.64102377;4039.87179446;3714.23076812;4301.41025655;4728.20512925;4300.64102578;4170.89743576;4172.30769217
4176.02564089;4202.82051275;4765.12820624;4238.84615385;3747.82051178;2140.51281607;229.99999153;-0.00000896;3350.51281864;4038.20512779;3746.79487076;4300.64102578;4437.94871837;4274.10256418;4173.46153833;4172.30769217
4176.02564089;4202.94871788;4694.61538559;4239.48717949;3679.74358857;2166.92307255;229.99999153;-0.00000896;3351.79486992;4042.43589702;3879.23076847;4301.53846168;4665.51282142;4301.66666681;4171.15384602;4172.30769217
4176.02564089;4203.07692301;4861.15384748;4239.61538462;3578.33333195;2167.82050845;-0.00000896;-0.00000896;3349.48717761;4044.87179446;3744.61538358;4303.46153860;4661.53846245;4300.25641040;4170.89743576;4172.30769217
4176.02564089;4203.84615378;4799.61538580;4239.61538462;3712.94871684;2171.79486742;-0.00000896;-0.00000896;3350.38461351;4070.76923043;3778.46153749;4274.74358982;4668.46153937;4301.79487194;4171.53846140;4172.30769217
4201.53846147;4204.23076917;4864.87179620;4239.48717949;3747.56410153;2168.46153409;-0.00000896;-0.00000896;3350.12820326;4070.25640991;3938.71794810;4274.35897443;4796.79487298;4301.28205142;4170.51282038;4205.12820506
4202.05128199;4204.74358968;4628.46153930;4240.12820513;3646.15384491;2168.84614947;-0.00000896;-0.00000896;3321.53845960;4071.53846119;3872.94871719;4299.74358989;4597.43589820;4299.74358989;4170.76923063;4205.12820506
4203.07692301;4205.12820506;4700.25641123;4237.94871795;3747.43589640;2171.15384178;-0.00000896;-0.00000896;3322.30769037;4043.58974318;3908.07692239;4274.23076930;4598.97435974;4300.25641040;4172.69230756;4205.12820506
4203.33333327;4205.51282045;4732.17948823;4238.46153847;3644.74358850;2171.02563665;-0.00000896;-0.00000896;3322.43589549;4044.99999959;3748.97435794;4301.02564117;4532.56410319;4300.64102578;4171.28205115;4205.12820506
4203.97435891;4205.12820506;4824.74359100;4238.71794872;3742.82051178;2172.69230332;-0.00000896;-0.00000896;3318.84615190;4074.23076889;3874.48717873;4301.53846168;4697.69230867;4300.51282066;4173.07692294;4205.12820506
4204.48717942;4206.15384609;4602.69230846;4236.28205129;3683.97435780;2169.10255973;-0.00000896;-0.00000896;3320.76922883;4072.05128171;3777.82051185;4300.00000014;4668.07692398;4301.15384630;4171.28205115;4205.12820506
4204.99999993;4206.15384609;4955.89743743;4236.15384616;3715.25640915;2168.33332896;-0.00000896;-0.00000896;3319.74358780;4072.17948684;3847.30769148;4274.10256418;4827.17948843;4301.92307707;4171.41025628;4205.12820506
4204.23076917;4204.99999993;4662.30769321;4235.38461539;3708.84615274;2167.05127768;-0.00000896;-0.00000896;3349.87179300;4043.33333292;3878.33333257;4300.12820527;4568.84615454;4299.61538476;4171.02564089;4205.12820506
4203.20512814;4204.23076917;4662.05128296;4234.23076923;3584.35897297;2140.25640581;-0.00000896;-0.00000896;3321.79486985;4041.02564061;3845.25640943;4299.48717963;4695.76923175;4300.64102578;4171.02564089;4205.12820506
4202.69230763;4203.84615378;5022.69230936;4234.48717949;3678.33333216;2167.56409819;-0.00000896;-0.00000896;3320.12820319;4044.35897395;3682.56410139;4299.48717963;4661.53846245;4301.53846168;4171.53846140;4205.12820506
4203.58974352;4205.25641019;4759.61538573;4234.23076923;3808.71794782;2167.30768793;-0.00000896;-0.00000896;3322.82051088;4069.74358940;3877.94871719;4300.64102578;4694.10256508;4299.61538476;4171.02564089;4205.12820506
4203.20512814;4204.35897429;4697.69230867;4235.25641026;3646.66666542;2141.15384171;-0.00000896;-0.00000896;3348.97435710;4074.48717914;3905.64102495;4300.38461553;4666.92307783;4301.02564117;4170.89743576;4205.12820506
4203.84615378;4204.23076917;4600.89743667;4235.12820513;3709.35897325;2167.17948281;-0.00000896;-0.00000896;3322.82051088;4073.33333299;3776.53846057;4301.15384630;4631.41025725;4301.66666681;4170.64102551;4205.12820506
4203.20512814;4204.74358968;4765.64102676;4235.89743590;3677.56410139;2167.43589306;-0.00000896;-0.00000896;3349.74358787;4044.87179446;3876.79487103;4301.79487194;4793.20512939;4300.76923091;4171.02564089;4205.12820506
4203.07692301;4204.10256404;4660.76923168;4235.64102564;3519.10256258;2171.66666229;-0.00000896;-0.00000896;3322.43589549;4072.17948684;3716.41025530;4302.94871809;4664.10256501;4301.28205142;4170.64102551;4205.12820506
4203.33333327;4203.20512814;5186.92307894;4235.64102564;3743.97435794;2171.15384178;-0.00000896;-0.00000896;3348.97435710;4043.33333292;3810.25640936;4300.38461553;4733.07692412;4301.66666681;4171.15384602;4205.12820506
4203.20512814;4204.23076917;4632.94871879;4235.64102564;3711.92307582;2166.66666229;-0.00000896;-0.00000896;3348.58974172;4075.64102530;3972.94871740;4299.48717963;4596.15384692;4300.76923091;4170.89743576;4205.12820506
4203.84615378;4205.89743583;4760.00000112;4236.41025641;3614.48717817;2170.76922640;-0.00000896;-0.00000896;3348.71794685;4074.99999966;3748.20512717;4300.76923091;4660.89743680;4300.25641040;4172.69230756;4205.12820506
4203.20512814;4204.74358968;4697.30769328;4236.53846154;3649.48717824;2170.64102127;-0.00000896;-0.00000896;3349.87179300;4069.99999966;3745.38461435;4274.61538469;4668.33333424;4274.61538469;4171.28205115;4205.12820506
4204.35897429;4204.48717942;4858.07692440;4235.76923077;3743.71794768;2167.30768793;-0.00000896;-0.00000896;3322.43589549;4073.71794837;3782.43589647;4301.02564117;4468.33333382;4300.38461553;4171.41025628;4205.12820506
4204.10256404;4204.61538455;4863.20512953;4237.69230770;3647.05128080;2167.30768793;-0.00000896;-0.00000896;3348.20512633;4074.99999966;3812.56410166;4299.48717963;4926.53846300;4301.53846168;4171.41025628;4205.12820506
4204.10256404;4204.61538455;4762.69230881;4236.41025641;3650.89743465;2169.61538024;-0.00000896;-0.00000896;3321.41025447;4077.17948684;3878.46153770;4300.89743604;4597.56410333;4301.41025655;4171.15384602;4205.12820506
4203.84615378;4205.51282045;4696.28205226;4237.05128206;3710.38461428;2169.74358537;229.99999153;-0.00000896;3318.84615190;4077.43589709;3846.15384532;4302.56410271;4600.12820590;4299.48717963;4171.15384602;4205.12820506
4203.07692301;4204.35897429;4793.46153965;4234.87179488;3579.23076784;2171.15384178;-0.00000896;-0.00000896;3321.02563908;4075.64102530;3812.30769141;4301.28205142;4696.41025739;4301.15384630;4171.02564089;4205.12820506
4203.46153840;4206.02564096;4962.82051435;4234.48717949;3748.84615281;2169.35896999;0.25640130;-0.00000896;3322.69230575;4073.84615350;3907.82051213;4302.30769245;4861.66666799;4301.28205142;4169.87179474;4205.12820506
4202.82051275;4204.35897429;4827.30769356;4234.87179488;3645.12820388;2140.64102120;37.17947829;-0.00000896;3322.30769037;4073.71794837;3878.84615309;4300.89743604;4796.02564221;4301.28205142;4171.02564089;4205.12820506
4201.79487173;4203.84615378;4791.79487298;4201.53846147;3711.92307582;2168.46153409;229.99999153;-0.00000896;3351.53845967;4074.74358940;4004.10256362;4300.64102578;4567.05128275;4301.02564117;4171.28205115;4205.12820506
4202.82051275;4204.61538455;4897.69230909;4208.97435891;3585.25640887;2169.87179050;229.99999153;-0.00000896;3351.66666479;4077.17948684;3944.74358912;4302.56410271;4667.69230860;4302.17948732;4171.41025628;4205.12820506
4201.28205122;4203.84615378;4698.84615482;4235.00000000;3745.12820409;2166.41025204;229.99999153;-0.00000896;3351.41025454;4106.15384588;3648.84615260;4274.48717956;4529.48718012;4299.48717963;4172.94871781;4205.12820506
4201.53846147;4203.46153840;4962.43589897;4235.25641026;3749.61538358;2139.48717504;229.99999153;-0.00000896;3352.30769044;4103.46153819;3942.05128143;4300.38461553;4861.53846286;4301.79487194;4168.58974345;4205.12820506
4176.28205115;4202.82051275;4764.87179599;4236.53846154;3713.97435787;2139.74358530;229.99999153;-0.00000896;3352.56410069;4076.15384581;4009.61538413;4301.15384630;4500.00000056;4303.07692322;4171.41025628;4172.30769217
4201.66666660;4202.05128199;4762.94871906;4237.30769231;3579.23076784;2141.28204684;229.99999153;-0.00000896;3349.61538274;4075.76923043;3847.69230686;4299.74358989;4668.07692398;4301.66666681;4170.51282038;4205.12820506
4202.43589737;4175.89743576;5023.07692475;4237.69230770;3649.74358850;2167.43589306;229.99999153;-0.00000896;3322.05128011;4103.20512793;3747.17948614;4301.28205142;4634.74359058;4303.20512835;4170.64102551;4205.12820506
4203.84615378;4202.30769224;4727.82051387;4239.61538462;3648.84615260;2171.41025204;229.99999153;-0.00000896;3320.12820319;4074.35897402;3779.61538365;4300.89743604;4694.61538559;4300.76923091;4172.56410243;4205.12820506
4204.35897429;4202.56410250;4960.64102717;4239.10256411;3679.61538344;2169.35896999;229.99999153;-0.00000896;3316.92307498;4075.51282017;3845.76922994;4302.43589758;4857.56410389;4300.64102578;4171.41025628;4205.12820506
4206.53846147;4201.53846147;4728.71794976;4238.33333334;3716.53846043;2167.94871357;229.99999153;-0.00000896;3315.76922883;4073.33333299;3813.07692218;4301.28205142;4664.35897527;4274.61538469;4171.66666653;4205.12820506
4206.79487173;4201.15384609;4763.07692419;4239.35897436;3680.12820395;2166.15384178;229.99999153;-0.00000896;3318.07692114;4072.69230735;4039.23076882;4301.15384630;4595.25641102;4301.92307707;4171.02564089;4205.12820506
4206.66666660;4176.15384602;4824.61538587;4237.30769231;3582.82051143;2169.99999563;229.99999153;-0.00000896;3319.74358780;4074.61538427;3746.15384512;4302.17948732;4665.51282142;4300.89743604;4172.17948704;4205.12820506
4206.53846147;4201.28205122;4925.64102710;4237.17948718;3746.41025537;2170.38461101;229.99999153;-0.00000896;3320.25640831;4073.20512786;3744.48717845;4301.15384630;4563.58974429;4301.02564117;4171.28205115;4205.12820506
4205.76923070;4201.02564096;4826.41025766;4237.17948718;3845.12820430;2172.30768793;229.99999153;-0.00000896;3320.76922883;4043.33333292;3742.43589640;4302.56410271;4601.15384692;4302.43589758;4171.28205115;4205.12820506
4205.51282045;4176.28205115;4726.53846258;4235.25641026;3648.84615260;2168.58973922;229.99999153;-0.00000896;3321.53845960;4043.46153805;4042.82051241;4302.30769245;4563.58974429;4300.12820527;4171.15384602;4205.12820506
4204.61538455;4201.66666660;4663.84615475;4236.02564103;3615.12820381;2168.33332896;229.99999153;-0.00000896;3320.51281857;4044.61538420;3677.17948600;4273.97435905;4504.23076979;4302.30769245;4171.28205115;4205.12820506
4204.10256404;4201.15384609;4697.17948816;4235.25641026;3647.82051157;2172.30768793;229.99999153;-0.00000896;3320.51281857;4071.66666632;3780.76922980;4274.48717956;4729.10256515;4302.30769245;4172.05128192;4205.12820506
4203.71794865;4203.20512814;4865.12820645;4234.87179488;3709.48717838;2171.92307255;229.99999153;-0.00000896;3319.74358780;4071.41025607;3808.97435807;4300.51282066;4536.53846217;4301.41025655;4171.79487166;4205.12820506
4203.20512814;4202.69230763;4765.25641137;4235.38461539;3745.64102460;2168.84614947;229.99999153;-0.00000896;3319.87179293;4043.58974318;3774.48717852;4304.10256425;4596.79487256;4301.53846168;4171.28205115;4205.12820506
4202.69230763;4201.79487173;4793.84615503;4234.23076923;3679.23076805;2171.92307255;229.99999153;-0.00000896;3348.20512633;4042.69230728;3844.35897353;4301.66666681;4662.82051373;4303.33333348;4171.28205115;4205.12820506
4201.66666660;4202.30769224;4799.10256529;4209.10256404;3418.97435724;2169.35896999;229.99999153;-0.00000896;3348.46153659;4043.46153805;3810.64102474;4300.12820527;4693.58974457;4299.74358989;4174.35897422;4205.12820506
4202.17948711;4201.28205122;4925.89743736;4235.00000000;3744.99999896;2167.94871357;229.99999153;-0.00000896;3347.82051095;4075.12820478;3841.92307609;4300.76923091;4764.35897547;4301.28205142;4171.66666653;4205.12820506
4201.28205122;4202.05128199;4699.10256508;4235.25641026;3714.10256299;2170.38461101;229.99999153;-0.00000896;3322.94871601;4072.69230735;3680.12820395;4302.30769245;4634.23077007;4301.02564117;4169.61538448;4205.12820506
4202.94871788;4203.20512814;4857.94871927;4235.12820513;3583.20512682;2168.46153409;229.99999153;-0.00000896;3321.15384421;4074.74358940;3910.25640957;4301.79487194;4732.82051387;4301.92307707;4171.02564089;4205.12820506
4202.05128199;4203.33333327;4731.79487284;4237.05128206;3617.30769099;2167.43589306;229.99999153;-0.00000896;3320.64102370;4044.99999959;3813.20512731;4300.25641040;4635.12820597;4300.38461553;4173.07692294;4205.12820506
4202.30769224;4202.56410250;4764.61538573;4236.41025641;3710.12820402;2166.79486742;229.99999153;-0.00000896;3320.76922883;4074.10256376;3906.15384546;4301.41025655;4568.20512890;4302.30769245;4171.28205115;4205.12820506
4202.30769224;4201.41025634;4635.51282135;4236.92307693;3710.25640915;2168.20512383;229.99999153;-0.00000896;3320.64102370;4074.87179453;3878.84615309;4302.05128219;4696.41025739;4301.92307707;4171.28205115;4205.12820506
4203.20512814;4201.66666660;5022.17948885;4237.05128206;3775.38461442;2168.07691870;229.99999153;-0.00000896;3322.69230575;4074.35897402;3907.94871726;4302.17948732;4799.74359093;4303.07692322;4170.76923063;4205.12820506
4202.43589737;4176.15384602;4734.10256515;4236.53846154;3711.15384505;2169.99999563;229.99999153;-0.00000896;3320.12820319;4074.61538427;3775.89743493;4300.76923091;4662.05128296;4302.43589758;4171.02564089;4205.12820506
4202.82051275;4175.76923063;4760.76923188;4237.56410257;3453.97435731;2169.61538024;229.99999153;-0.00000896;3320.64102370;4069.74358940;3905.76923008;4300.64102578;4668.07692398;4302.05128219;4171.53846140;4205.12820506
4202.56410250;4201.02564096;4860.64102697;4237.56410257;3774.61538365;2172.56409819;229.99999153;-0.00000896;3320.12820319;4044.87179446;3715.25640915;4304.87179501;4860.25641158;4301.15384630;4171.02564089;4205.12820506
4202.82051275;4201.66666660;4862.05128338;4238.97435898;3744.23076819;2174.10255973;229.99999153;-0.00000896;3317.30769037;4044.23076882;3905.76923008;4300.38461553;4668.46153937;4302.56410271;4171.15384602;4205.12820506
4202.94871788;4175.89743576;4602.69230846;4236.66666667;3678.58974241;2172.05127768;229.99999153;-0.00000896;3315.89743396;4043.71794830;3909.61538392;4274.35897443;4629.87179571;4301.79487194;4171.53846140;4205.12820506
4203.20512814;4201.28205122;4859.35897568;4236.15384616;3551.15384470;2171.41025204;72.05127323;-0.00000896;3316.02563908;4043.97435856;3808.20512731;4299.48717963;4732.69230874;4302.43589758;4172.05128192;4205.12820506
4202.94871788;4175.89743576;4765.00000112;4236.02564103;3682.43589626;2169.61538024;-0.00000896;-0.00000896;3318.84615190;4072.17948684;3842.43589661;4301.15384630;4701.28205226;4302.94871809;4171.53846140;4205.12820506
4202.94871788;4201.79487173;4830.38461664;4236.15384616;3713.58974248;2172.05127768;229.99999153;-0.00000896;3318.71794678;4069.87179453;3939.10256348;4274.35897443;4697.43589841;4303.07692322;4169.87179474;4205.12820506
4201.92307686;4203.33333327;5022.82051449;4234.87179488;3780.76922980;2172.05127768;-0.00000896;-0.00000896;3317.69230575;4040.89743548;3943.33333271;4300.89743604;4857.69230902;4301.53846168;4171.41025628;4205.12820506
4176.28205115;4202.30769224;4792.69230888;4234.10256411;3715.89743479;2166.53845716;-0.00000896;-0.00000896;3319.23076729;4044.10256369;3807.56410166;4301.53846168;4530.38461601;4301.41025655;4171.41025628;4172.30769217
4175.76923063;4201.92307686;4660.64102655;4208.97435891;3682.05128087;2168.46153409;-0.00000896;-0.00000896;3320.12820319;4069.74358940;3748.84615281;4300.89743604;4566.02564172;4301.79487194;4171.02564089;4172.30769217
4201.02564096;4202.56410250;4761.53846265;4208.97435891;3481.15384456;2199.35897005;-0.00000896;-0.00000896;3318.97435703;4073.46153812;3746.28205024;4301.92307707;4634.23077007;4302.05128219;4171.79487166;4205.12820506
4176.28205115;4202.94871788;4693.46153944;4235.76923077;3776.15384518;2172.69230332;-0.00000896;-0.00000896;3318.33333139;4073.58974325;3808.07692218;4301.15384630;4699.35897534;4301.15384630;4171.92307679;4172.30769217
4201.66666660;4202.94871788;4826.28205254;4234.23076923;3716.41025530;2167.94871357;-0.00000896;-0.00000896;3321.53845960;4073.84615350;3909.35897367;4301.92307707;4635.76923161;4301.02564117;4171.28205115;4205.12820506
4201.28205122;4202.17948711;4534.48718012;4208.58974352;3676.92307575;2168.20512383;-0.00000896;-0.00000896;3320.38461344;4072.69230735;4041.79487138;4302.17948732;4599.23077000;4301.66666681;4171.53846140;4205.12820506
4201.41025634;4176.15384602;4826.79487305;4208.58974352;3617.05128073;2170.12820075;-0.00000896;-0.00000896;3318.46153652;4043.71794830;3742.69230665;4273.84615392;4694.35897534;4302.05128219;4171.53846140;4205.12820506
4201.02564096;4176.28205115;5090.12820694;4209.10256404;3715.51281940;2140.38461094;-0.00000896;-0.00000896;3318.71794678;4042.30769189;3649.48717824;4303.33333348;4727.30769335;4301.66666681;4173.84615371;4205.12820506
4176.28205115;4201.66666660;4857.69230902;4235.00000000;3744.87179383;2167.30768793;-0.00000896;-0.00000896;3318.20512626;4072.30769196;3782.43589647;4302.05128219;4633.07692391;4302.05128219;4171.41025628;4172.30769217
4176.15384602;4201.41025634;4832.43589869;4235.12820513;3808.58974269;2169.10255973;-0.00000896;-0.00000896;3318.84615190;4076.15384581;3843.33333250;4302.17948732;4760.25641137;4303.58974373;4171.41025628;4172.30769217
4201.66666660;4202.05128199;4763.58974471;4233.84615385;3683.33333216;2171.28204691;-0.00000896;-0.00000896;3316.41025447;4044.74358933;3977.43589688;4300.25641040;4533.84615448;4301.92307707;4172.05128192;4205.12820506
4202.56410250;4202.69230763;4662.56410347;4234.74358975;3584.23076784;2170.64102127;-0.00000896;-0.00000896;3317.43589549;4073.84615350;3745.89743486;4300.38461553;4666.53846245;4300.51282066;4171.79487166;4205.12820506
4202.43589737;4203.07692301;4728.46153951;4208.97435891;3582.17948579;2170.51281614;-0.00000896;-0.00000896;3318.71794678;4070.38461504;3709.23076812;4303.33333348;4661.92307783;4302.56410271;4171.53846140;4205.12820506
4202.82051275;4202.94871788;4827.69230895;4209.10256404;3742.05128101;2169.10255973;-0.00000896;-0.00000896;3319.87179293;4074.61538427;3976.41025586;4301.28205142;4666.02564193;4301.92307707;4171.28205115;4205.12820506
4203.33333327;4203.33333327;4731.41025746;4208.84615378;3716.15384505;2167.05127768;-0.00000896;-0.00000896;3347.94871608;4075.25640991;3845.76922994;4302.43589758;4661.66666757;4302.69230784;4171.28205115;4205.12820506
4201.15384609;4201.66666660;4794.10256529;4208.71794865;3747.56410153;2170.25640588;-0.00000896;-0.00000896;3322.69230575;4072.82051248;3945.38461476;4299.87179501;4600.25641102;4300.89743604;4171.28205115;4205.12820506
4176.15384602;4202.30769224;4798.46153965;4234.23076923;3584.87179349;2170.25640588;-0.00000896;-0.00000896;3349.23076736;4077.17948684;3782.30769134;4301.66666681;4635.64102648;4300.76923091;4171.41025628;4172.30769217
4174.99999986;4201.41025634;4733.71794976;4235.00000000;3709.35897325;2199.35897005;-0.00000896;-0.00000896;3348.58974172;4076.79487145;3779.35897339;4300.38461553;4632.17948802;4302.30769245;4171.02564089;4172.30769217
4175.38461525;4202.05128199;4895.00000139;4235.51282052;3709.74358864;2172.94871357;-0.00000896;-0.00000896;3321.79486985;4073.97435863;3742.94871691;4302.30769245;4694.35897534;4301.92307707;4171.15384602;4172.30769217
4175.25641012;4202.82051275;4794.35897554;4235.12820513;3745.76922973;2171.92307255;-0.00000896;-0.00000896;3320.38461344;4076.66666632;4008.97435849;4301.92307707;4727.43589848;4300.12820527;4171.66666653;4172.30769217
4173.46153833;4202.43589737;4763.84615496;4234.87179488;3649.99999875;2167.69230332;-0.00000896;-0.00000896;3321.53845960;4073.58974325;3807.17948628;4301.02564117;4597.56410333;4300.00000014;4171.66666653;4172.30769217
4175.25641012;4202.17948711;4863.97436030;4233.84615385;3677.30769113;2168.07691870;-0.00000896;-0.00000896;3321.15384421;4104.23076896;3876.02564027;4303.46153860;4732.30769335;4302.30769245;4171.41025628;4172.30769217
4174.74358961;4201.79487173;4995.76923237;4236.15384616;3613.07692176;2168.71794434;-0.00000896;-0.00000896;3321.92307498;4075.51282017;3781.28205031;4299.61538476;4830.76923202;4302.69230784;4171.41025628;4172.30769217
4174.48717935;4202.82051275;4824.74359100;4236.53846154;3780.51281954;2171.66666229;-0.00000896;-0.00000896;3320.51281857;4074.99999966;3841.41025558;4273.20512828;4827.05128331;4302.82051296;4171.53846140;4172.30769217
4174.48717935;4202.69230763;4600.64102641;4236.02564103;3709.61538351;2172.17948281;229.99999153;-0.00000896;3348.84615197;4075.76923043;3975.76923022;4274.10256418;4566.66666737;4303.07692322;4171.53846140;4172.30769217
4171.92307679;4203.07692301;4796.92307811;4237.17948718;3513.07692155;2140.64102120;229.99999153;-0.00000896;3351.15384428;4072.69230735;3778.71794775;4274.61538469;4730.12820617;4301.53846168;4172.82051269;4172.30769217
4170.38461525;4201.79487173;5121.41025829;4236.28205129;3715.12820402;2166.92307255;229.99999153;-0.00000896;3350.25640838;4077.17948684;3746.15384512;4301.53846168;4762.43589855;4301.66666681;4171.79487166;4172.30769217
4168.71794858;4201.53846147;4667.17948809;4236.02564103;3747.82051178;2166.66666229;229.99999153;-0.00000896;3350.12820326;4076.79487145;3911.66666598;4300.76923091;4664.10256501;4302.30769245;4171.41025628;4172.30769217
4141.66666646;4202.05128199;4927.05128351;4235.00000000;3743.97435794;2169.10255973;-0.00000896;-0.00000896;3349.74358787;4105.12820485;3976.41025586;4301.15384630;4765.00000112;4302.17948732;4172.05128192;4139.48717928
4139.74358954;4202.94871788;4793.97436016;4235.38461539;3748.97435794;2170.12820075;4.10255514;-0.00000896;3350.89743403;4076.02564068;3815.12820423;4299.48717963;4796.28205247;4302.30769245;4172.43589730;4139.48717928
4137.17948697;4202.43589737;4764.61538573;4236.28205129;3451.28204962;2172.82050845;229.99999153;-0.00000896;3350.64102377;4074.99999966;3848.07692225;4300.89743604;4795.25641144;4300.76923091;4172.05128192;4139.48717928
4109.87179460;4203.33333327;4892.30769370;4235.64102564;3712.30769120;2166.15384178;4.10255514;-0.00000896;3354.10256223;4072.69230735;3712.43589633;4302.30769245;4793.71794990;4301.92307707;4172.82051269;4106.66666639
4108.71794844;4202.69230763;4765.51282163;4235.64102564;3676.53846036;2172.43589306;229.99999153;-0.00000896;3354.74358787;4074.99999966;3840.64102481;4274.23076930;4565.76923147;4301.92307707;4171.79487166;4106.66666639
4104.48717921;4202.94871788;4728.97436002;4236.41025641;3743.33333229;2173.20512383;4.10255514;-0.00000896;3353.71794685;4076.28205094;3911.66666598;4300.89743604;4630.51282135;4302.56410271;4172.05128192;4106.66666639
4077.30769196;4204.99999993;4890.76923216;4236.02564103;3643.20512696;2201.92307262;229.99999153;-0.00000896;3354.48717761;4076.02564068;3781.53846057;4300.76923091;4667.05128296;4301.28205142;4171.66666653;4073.84615350
4073.71794837;4207.05128199;4826.53846279;4236.79487180;3613.84615253;2198.97435467;4.10255514;-0.00000896;3353.07692120;4075.38461504;3840.51281968;4300.00000014;4662.43589834;4301.92307707;4172.43589730;4073.84615350
4071.92307658;4208.71794865;4799.23077042;4238.71794872;3744.35897332;2199.48717518;229.99999153;-0.00000896;3349.10256223;4106.66666639;3943.97435835;4301.53846168;4897.05128344;4302.43589758;4171.41025628;4073.84615350
4069.74358940;4233.84615385;4602.30769308;4238.33333334;3714.23076812;2171.66666229;4.10255514;-0.00000896;3348.33333146;4135.76923056;3840.25640943;4274.61538469;4500.89743646;4301.41025655;4172.17948704;4073.84615350
4044.10256369;4234.23076923;4958.84615538;4239.23076923;3714.35897325;2168.46153409;229.99999153;-0.00000896;3348.58974172;4138.71794851;3907.30769162;4274.74358982;4796.79487298;4303.20512835;4172.30769217;4041.02564061
4043.58974318;4234.61538462;4797.82051401;4239.35897436;3582.30769092;2199.10255980;4.10255514;-0.00000896;3320.38461344;4168.84615371;3841.79487096;4274.61538469;4601.53846231;4300.76923091;4172.94871781;4041.02564061
4043.71794830;4234.87179488;4857.43589876;4238.46153847;3743.07692204;2172.69230332;229.99999153;-0.00000896;3318.84615190;4170.25641012;3841.02564020;4272.94871802;4832.30769356;4302.69230784;4172.94871781;4041.02564061
4044.48717907;4234.87179488;4698.33333431;4239.61538462;3650.25640901;2171.02563665;4.10255514;-0.00000896;3318.97435703;4173.97435884;3807.69230679;4300.51282066;4601.02564179;4274.74358982;4172.69230756;4041.02564061
4044.87179446;4234.35897436;4759.48718060;4238.46153847;3777.43589647;2167.94871357;229.99999153;-0.00000896;3320.51281857;4172.69230756;3841.02564020;4301.15384630;4824.87179613;4301.15384630;4173.07692294;4041.02564061
4044.10256369;4233.84615385;4825.12820638;4239.10256411;3683.33333216;2141.41025197;4.10255514;-0.00000896;3318.84615190;4173.33333320;3973.46153791;4274.61538469;4537.05128268;4299.74358989;4174.10256397;4041.02564061
4070.38461504;4233.84615385;4794.23077042;4239.87179488;3578.46153708;2168.71794434;229.99999153;-0.00000896;3288.84615183;4203.07692301;3973.97435842;4274.23076930;4631.92307776;4273.84615392;4201.02564096;4073.84615350
4070.89743555;4207.30769224;4825.64102690;4238.58974359;3710.64102453;2168.07691870;4.10255514;-0.00000896;3287.82051081;4205.38461532;3650.76922952;4301.15384630;4562.94871865;4300.12820527;4174.35897422;4073.84615350
4073.07692273;4207.94871788;4894.10256550;4239.10256411;3779.87179390;2198.97435467;229.99999153;-0.00000896;3284.23076722;4234.23076923;3878.97435821;4301.41025655;4728.97436002;4300.76923091;4173.84615371;4073.84615350
4073.97435863;4208.71794865;4662.69230860;4239.35897436;3682.56410139;2199.74358544;4.10255514;-0.00000896;3255.12820305;4235.12820513;3976.53846099;4299.87179501;4631.53846238;4300.76923091;4175.51282038;4073.84615350
4076.66666632;4208.71794865;4595.38461615;4238.07692308;3612.43589612;2173.33332896;229.99999153;-0.00000896;3249.23076715;4208.71794865;3811.66666577;4300.25641040;4563.07692378;4300.00000014;4174.48717935;4073.84615350
4106.28205101;4234.87179488;4730.38461643;4238.84615385;3681.92307575;2173.97435460;4.10255514;-0.00000896;3249.74358766;4236.92307693;3879.23076847;4299.87179501;4693.58974457;4299.87179501;4174.61538448;4106.66666639
4135.38461518;4234.23076923;4766.92307804;4236.66666667;3552.05128060;2171.66666229;229.99999153;-0.00000896;3223.97435682;4239.74358975;3713.84615274;4301.02564117;4666.15384706;4300.76923091;4174.61538448;4139.48717928
4140.89743569;4208.97435891;4991.02564263;4236.41025641;3713.20512710;2166.41025204;4.10255514;-0.00000896;3249.23076715;4235.89743590;3874.35897360;4300.76923091;4660.64102655;4273.33333341;4175.25641012;4139.48717928
4170.76923063;4206.28205122;4700.76923175;4234.87179488;3747.43589640;2169.35896999;229.99999153;-0.00000896;3250.38461330;4241.92307693;3743.58974255;4300.89743604;4668.20512911;4274.61538469;4174.48717935;4172.30769217
4175.64102551;4206.53846147;4798.71794990;4208.84615378;3481.15384456;2170.76922640;4.10255514;-0.00000896;3223.84615170;4238.71794872;3807.69230679;4300.76923091;4632.56410340;4273.84615392;4172.69230756;4172.30769217
4205.64102558;4205.51282045;4732.05128310;4208.46153840;3744.35897332;2172.82050845;229.99999153;-0.00000896;3224.48717734;4266.92307700;3612.82051150;4273.84615392;4631.53846238;4300.51282066;4174.48717935;4205.12820506
4208.58974352;4203.84615378;4892.94871934;4207.94871788;3743.07692204;2170.89743152;4.10255514;-0.00000896;3253.33333125;4238.33333334;3972.30769176;4300.12820527;4667.94871886;4300.25641040;4174.48717935;4205.12820506
4236.41025641;4204.61538455;4629.10256494;4207.05128199;3647.05128080;2172.05127768;229.99999153;-0.00000896;3287.69230568;4240.38461539;3909.61538392;4299.48717963;4631.79487263;4301.02564117;4174.87179474;4237.94871795
4239.61538462;4203.20512814;4667.56410347;4207.56410250;3774.74358877;2140.38461094;-0.00000896;-0.00000896;3318.58974165;4239.87179488;3979.23076868;4301.15384630;4599.48718026;4274.10256418;4173.07692294;4237.94871795
4238.84615385;4202.43589737;4667.56410347;4208.33333327;3643.46153721;2168.84614947;-0.00000896;-0.00000896;3321.79486985;4236.79487180;3747.43589640;4300.12820527;4563.58974429;4274.23076930;4175.38461525;4237.94871795
4236.28205129;4201.53846147;4927.30769377;4208.20512814;3776.28205031;2173.46153409;-0.00000896;-0.00000896;3317.43589549;4237.05128206;3944.23076861;4274.35897443;4733.84615489;4300.38461553;4174.87179474;4237.94871795
4236.53846154;4202.56410250;4568.71794942;4208.84615378;3585.51281913;2201.41025211;229.99999153;-0.00000896;3284.99999799;4234.23076923;3841.02564020;4299.48717963;4599.35897513;4273.20512828;4176.28205115;4237.94871795
4237.05128206;4203.46153840;5092.17948899;4206.28205122;3775.12820416;2172.30768793;229.99999153;-0.00000896;3287.56410055;4238.33333334;3782.05128108;4272.30769238;4892.56410396;4299.61538476;4174.61538448;4237.94871795
4237.05128206;4202.69230763;4701.28205226;4206.92307686;3616.66666535;2169.35896999;229.99999153;-0.00000896;3290.12820312;4235.76923077;3874.74358898;4273.84615392;4634.74359058;4300.25641040;4172.94871781;4237.94871795
4236.41025641;4202.43589737;4727.69230874;4206.53846147;3451.02563936;2166.92307255;229.99999153;-0.00000896;3288.71794671;4207.43589737;3746.28205024;4301.92307707;4629.10256494;4299.48717963;4174.35897422;4237.94871795
4236.15384616;4175.12820499;5121.66666855;4207.82051275;3777.43589647;2167.94871357;-0.00000896;-0.00000896;3287.94871594;4206.02564096;3877.17948642;4274.10256418;4796.79487298;4274.74358982;4174.74358961;4237.94871795
4237.05128206;4176.02564089;4665.38461629;4207.43589737;3713.33333223;2171.28204691;-0.00000896;-0.00000896;3287.05128004;4207.94871788;3840.12820430;4271.79487187;4695.76923175;4300.76923091;4174.48717935;4237.94871795
4237.69230770;4175.38461525;4732.30769335;4208.20512814;3713.33333223;2169.99999563;-0.00000896;-0.00000896;3287.56410055;4206.02564096;4039.61538420;4273.07692315;4634.23077007;4274.61538469;4174.61538448;4237.94871795
4238.46153847;4175.89743576;4633.84615468;4206.53846147;3548.33333188;2171.02563665;-0.00000896;-0.00000896;3288.84615183;4203.97435891;3745.76922973;4273.20512828;4634.23077007;4300.25641040;4174.10256397;4237.94871795
4238.46153847;4201.53846147;4799.23077042;4206.15384609;3710.25640915;2171.53845716;-0.00000896;-0.00000896;3287.82051081;4204.87179481;3944.61538399;4274.48717956;4760.51282163;4299.61538476;4174.87179474;4237.94871795
4240.25641026;4201.53846147;4697.30769328;4204.74358968;3715.64102453;2171.15384178;-0.00000896;-0.00000896;3290.12820312;4202.69230763;3844.10256327;4301.79487194;4667.17948809;4299.87179501;4201.02564096;4237.94871795
4267.05128212;4201.79487173;4991.66666827;4204.23076917;3741.79487076;2168.97435460;-0.00000896;-0.00000896;3314.87179293;4201.15384609;3847.69230686;4300.51282066;4693.71794969;4273.07692315;4174.61538448;4270.76923084
4268.58974366;4202.30769224;4859.35897568;4205.64102558;3748.97435794;2169.23076486;-0.00000896;-0.00000896;3289.61538260;4175.89743576;3680.12820395;4301.41025655;4601.79487256;4274.74358982;4174.74358961;4270.76923084
4270.38461546;4204.23076917;4631.41025725;4204.48717942;3677.17948600;2171.66666229;-0.00000896;-0.00000896;3314.87179293;4203.46153840;3943.71794810;4274.23076930;4629.35897520;4300.76923091;4174.10256397;4270.76923084
4271.92307700;4204.35897429;4668.20512911;4205.76923070;3551.66666521;2171.79486742;-0.00000896;-0.00000896;3315.89743396;4204.10256404;3676.28205010;4274.48717956;4633.84615468;4300.89743604;4174.10256397;4270.76923084
4272.69230777;4204.87179481;4929.87179633;4204.48717942;3712.94871684;2171.79486742;-0.00000896;-0.00000896;3316.53845960;4202.56410250;3907.30769162;4302.05128219;4728.33333438;4300.89743604;4174.48717935;4270.76923084
4273.07692315;4206.28205122;4863.20512953;4204.23076917;3807.82051192;2170.51281614;-0.00000896;-0.00000896;3318.58974165;4203.46153840;3809.74358884;4301.53846168;4661.41025732;4300.64102578;4173.33333320;4270.76923084
4273.97435905;4205.38461532;4827.56410382;4205.51282045;3550.25640880;2141.28204684;-0.00000896;-0.00000896;3317.30769037;4205.25641019;4005.64102516;4273.46153853;4728.33333438;4301.02564117;4174.35897422;4270.76923084
4274.61538469;4206.28205122;4699.35897534;4205.12820506;3679.61538344;2171.66666229;-0.00000896;-0.00000896;3316.53845960;4204.87179481;3781.02564006;4274.23076930;4632.69230853;4274.61538469;4201.41025634;4270.76923084
4300.25641040;4207.17948711;4793.71794990;4205.25641019;3748.46153742;2168.84614947;-0.00000896;-0.00000896;3316.28204934;4205.76923070;3944.87179425;4300.25641040;4696.02564200;4301.53846168;4174.48717935;4303.58974373
4301.02564117;4207.43589737;4991.92307853;4206.15384609;3614.10256279;2141.15384171;-0.00000896;-0.00000896;3315.76922883;4201.66666660;3813.71794782;4300.25641040;4700.89743687;4300.00000014;4174.23076910;4303.58974373
4302.69230784;4206.53846147;4926.15384762;4204.99999993;3745.89743486;2137.43589299;-0.00000896;-0.00000896;3317.56410062;4172.82051269;3846.41025558;4300.64102578;4693.97435995;4301.79487194;4174.23076910;4303.58974373
4303.33333348;4204.61538455;4667.82051373;4204.10256404;3747.17948614;2166.79486742;-0.00000896;-0.00000896;3319.10256216;4204.23076917;3712.05128094;4271.66666674;4531.79487242;4300.38461553;4173.97435884;4303.58974373
4303.20512835;4205.25641019;4799.61538580;4204.35897429;3585.51281913;2139.99999556;-0.00000896;-0.00000896;3319.10256216;4175.38461525;4007.43589695;4299.48717963;4566.02564172;4299.74358989;4172.43589730;4303.58974373
4303.20512835;4203.46153840;4760.38461650;4204.10256404;3775.38461442;2166.15384178;-0.00000896;-0.00000896;3316.92307498;4203.20512814;3647.05128080;4273.07692315;4666.79487270;4274.10256418;4173.84615371;4303.58974373
4304.61538476;4204.10256404;4926.28205275;4204.61538455;3712.82051171;2169.48717511;-0.00000896;-0.00000896;3317.56410062;4201.92307686;3906.15384546;4272.69230777;5158.07692503;4274.74358982;4173.71794858;4303.58974373
4303.97435912;4204.35897429;4630.51282135;4201.92307686;3646.79487055;2166.28204691;-0.00000896;-0.00000896;3319.10256216;4173.84615371;3946.28205066;4300.51282066;4632.56410340;4300.89743604;4173.20512807;4303.58974373
4307.43589758;4204.74358968;4664.35897527;4201.28205122;3616.41025509;2169.99999563;-0.00000896;-0.00000896;3316.53845960;4172.17948704;3776.66666570;4301.15384630;4594.87179564;4300.51282066;4171.41025628;4303.58974373
4307.17948732;4205.38461532;4792.69230888;4175.38461525;3645.25640901;2168.07691870;-0.00000896;-0.00000896;3317.30769037;4169.23076910;3843.33333250;4274.35897443;4599.35897513;4301.15384630;4173.58974345;4303.46153860
4332.56410278;4205.51282045;4696.79487277;4174.74358961;3643.58974234;2169.10255973;229.99999153;-0.00000896;3319.48717755;4169.48717935;3742.30769127;4301.79487194;4694.87179585;4299.61538476;4174.35897422;4336.28205149
4334.74358996;4206.79487173;4963.20512974;4174.74358961;3711.92307582;2140.76922633;-0.00000896;-0.00000896;3348.58974172;4143.33333313;3844.87179404;4300.25641040;4797.30769349;4300.25641040;4173.58974345;4336.28205149
4336.28205149;4206.92307686;4761.15384727;4175.51282038;3676.41025523;2139.23076479;-0.00000896;-0.00000896;3354.48717761;4173.46153833;3942.30769169;4301.92307707;4595.38461615;4301.02564117;4171.92307679;4336.28205149
4335.38461560;4206.53846147;4700.25641123;4174.99999986;3711.41025530;2166.66666229;4.48717053;-0.00000896;3383.97435717;4142.69230749;4007.82051234;4302.05128219;4663.71794963;4301.28205142;4173.84615371;4336.28205149
4332.56410278;4205.76923070;4699.87179585;4176.15384602;3582.17948579;2167.94871357;229.99999153;-0.00000896;3387.17948538;4140.51282031;3714.23076812;4302.43589758;4666.28205219;4274.74358982;4172.94871781;4336.28205149
4306.79487194;4206.41025634;4931.15384762;4201.02564096;3747.17948614;2166.28204691;229.99999153;-0.00000896;3414.35897263;4136.79487159;3780.64102467;4299.74358989;4662.69230860;4300.12820527;4173.46153833;4303.58974373
4303.20512835;4207.30769224;4726.66666771;4175.64102551;3813.71794782;2140.64102120;229.99999153;-0.00000896;3414.48717775;4168.58974345;3940.25640963;4303.20512835;4628.46153930;4274.61538469;4173.07692294;4303.46153860
4300.89743604;4207.17948711;4865.00000132;4202.69230763;3647.94871670;2134.99999556;229.99999153;-0.00000896;3415.76922904;4143.33333313;3942.94871733;4300.89743604;4762.30769342;4300.51282066;4172.94871781;4303.58974373
4273.84615392;4206.79487173;4795.64102683;4202.17948711;3714.48717838;2136.79486735;229.99999153;-0.00000896;3416.79487006;4169.48717935;3747.17948614;4299.61538476;4698.97435995;4274.35897443;4173.07692294;4270.76923084
4273.84615392;4206.15384609;4859.61538594;4202.69230763;3676.53846036;2138.20512376;229.99999153;-0.00000896;3384.10256230;4169.87179474;3776.28205031;4300.64102578;4993.07692468;4274.10256418;4173.46153833;4270.76923084
4273.84615392;4207.05128199;4859.48718081;4203.46153840;3813.97435807;2133.71794427;229.99999153;-0.00000896;3381.92307512;4170.89743576;3846.28205045;4299.61538476;4732.05128310;4300.00000014;4173.46153833;4270.76923084
4299.48717963;4206.28205122;4699.87179585;4204.10256404;3775.25640929;2105.76922626;229.99999153;-0.00000896;3386.28204948;4171.02564089;3940.12820451;4301.15384630;4438.84615427;4271.79487187;4169.99999986;4303.58974373
4300.00000014;4204.23076917;4759.10256522;4206.28205122;3645.51281927;2106.79486728;229.99999153;-0.00000896;3414.87179314;4173.97435884;3845.89743507;4300.00000014;4662.30769321;4300.38461553;4173.07692294;4303.58974373
4300.64102578;4202.30769224;4798.84615503;4206.28205122;3479.10256251;2133.58973915;229.99999153;-0.00000896;3415.25640852;4171.15384602;3807.94871705;4301.15384630;4696.15384713;4274.74358982;4173.07692294;4303.58974373
4300.00000014;4201.66666660;4765.51282163;4207.17948711;3747.56410153;2138.46153402;229.99999153;-0.00000896;3417.82051109;4138.20512800;3683.20512703;4300.25641040;4730.00000105;4299.87179501;4172.94871781;4303.58974373
4273.58974366;4176.02564089;4763.97436009;4208.07692301;3714.61538351;2139.48717504;229.99999153;-0.00000896;3420.12820339;4136.53846133;3847.43589661;4301.41025655;4664.35897527;4301.79487194;4170.64102551;4270.76923084
4271.66666674;4201.28205122;4766.15384727;4207.05128199;3650.12820388;2139.99999556;229.99999153;-0.00000896;3419.10256237;4107.43589716;3812.56410166;4301.02564117;4632.69230853;4300.89743604;4170.38461525;4270.76923084
4269.35897443;4202.17948711;4667.69230860;4205.89743583;3580.25640887;2138.46153402;229.99999153;-0.00000896;3421.15384442;4109.48717921;3875.76923001;4302.94871809;4596.66666743;4299.87179501;4172.30769217;4270.76923084
4241.66666667;4202.43589737;4792.05128324;4206.92307686;3683.97435780;2135.12820068;229.99999153;-0.00000896;3448.20512654;4104.87179460;3845.38461455;4299.87179501;4595.51282128;4299.87179501;4169.48717935;4237.94871795
4238.07692308;4202.69230763;4695.89743687;4205.38461532;3644.61538337;2135.12820068;229.99999153;-0.00000896;3447.17948552;4107.17948691;3779.87179390;4302.30769245;4698.46153944;4301.02564117;4172.56410243;4237.94871795
4235.12820513;4203.58974352;4925.25641172;4206.92307686;3713.58974248;2108.33332882;229.99999153;-0.00000896;3448.07692141;4136.02564082;3744.61538358;4302.43589758;4761.41025753;4274.74358982;4172.43589730;4237.94871795
4208.20512814;4204.35897429;4726.28205233;4208.33333327;3708.71794761;2136.79486735;229.99999153;-0.00000896;3448.33333167;4136.79487159;3842.69230686;4303.58974373;4532.17948781;4299.61538476;4172.94871781;4205.12820506
4205.89743583;4204.23076917;4699.23077021;4208.97435891;3584.23076784;2136.92307248;229.99999153;-0.00000896;3418.97435724;4139.74358954;3814.61538372;4301.79487194;4596.41025718;4301.02564117;4172.82051269;4205.12820506
4203.97435891;4205.64102558;4862.82051414;4234.10256411;3778.33333236;2137.05127761;229.99999153;-0.00000896;3414.48717775;4138.46153826;3776.53846057;4302.94871809;4829.48718074;4299.61538476;4172.82051269;4205.12820506
4204.61538455;4205.89743583;4766.15384727;4234.87179488;3779.10256313;2136.66666222;229.99999153;-0.00000896;3387.56410076;4140.76923056;3781.28205031;4302.82051296;4468.33333382;4273.97435905;4172.94871781;4205.12820506
4204.35897429;4206.15384609;4767.05128317;4233.84615385;3808.84615295;2136.28204684;229.99999153;-0.00000896;3385.64102384;4142.56410236;3814.35897346;4304.87179501;4599.35897513;4300.00000014;4172.30769217;4205.12820506
4205.38461532;4204.99999993;4730.89743694;4208.58974352;3808.07692218;2105.38461087;229.99999153;-0.00000896;3386.28204948;4168.58974345;3908.33333264;4301.92307707;4628.71794956;4274.48717956;4172.69230756;4205.12820506
4207.69230763;4202.30769224;4697.82051380;4208.71794865;3646.92307568;2136.02563658;229.99999153;-0.00000896;3387.56410076;4140.25641005;3778.07692211;4302.05128219;4602.94871872;4300.38461553;4171.66666653;4205.12820506
4203.84615378;4202.30769224;4891.79487319;4235.12820513;3746.41025537;2134.87179043;229.99999153;-0.00000896;3415.64102391;4138.07692287;3973.33333278;4299.74358989;4667.82051373;4274.48717956;4172.69230756;4205.12820506
4205.25641019;4202.82051275;4762.05128317;4236.28205129;3878.46153770;2136.66666222;229.99999153;-0.00000896;3413.84615211;4138.97435877;3645.25640901;4299.48717963;4662.30769321;4272.05128212;4170.25641012;4205.12820506
4203.84615378;4204.35897429;4927.94871941;4237.56410257;3813.84615295;2138.07691863;229.99999153;-0.00000896;3385.89743409;4138.20512800;3973.46153791;4301.53846168;4827.17948843;4274.48717956;4172.43589730;4205.12820506
4204.61538455;4201.79487173;4890.76923216;4236.66666667;3747.05128101;2135.25640581;229.99999153;-0.00000896;3383.46153666;4136.92307672;3978.46153791;4301.66666681;4563.33333403;4300.64102578;4172.56410243;4205.12820506
4205.89743583;4203.20512814;4762.82051394;4235.38461539;3747.69230665;2134.74358530;229.99999153;-0.00000896;3386.02563922;4141.02564082;3908.07692239;4302.56410271;4699.61538559;4273.58974366;4172.56410243;4205.12820506
4206.28205122;4202.17948711;5121.41025829;4236.79487180;3847.94871712;2135.51281607;67.43588861;-0.00000896;3385.51281871;4142.69230749;3712.30769120;4301.53846168;4727.82051387;4299.87179501;4170.25641012;4205.12820506
4206.28205122;4202.05128199;4728.07692412;4235.89743590;3874.48717873;2139.35896992;1.53845258;-0.00000896;3387.56410076;4137.30769210;3749.23076819;4300.51282066;4697.30769328;4300.12820527;4172.94871781;4205.12820506
4206.79487173;4201.79487173;4859.87179620;4236.41025641;3878.97435821;2137.56409812;229.99999153;-0.00000896;3416.53845981;4110.51282024;3874.74358898;4302.82051296;4700.25641123;4273.71794879;4172.82051269;4205.12820506
4205.51282045;4202.17948711;4727.43589848;4237.05128206;3813.84615295;2137.56409812;1.53845258;-0.00000896;3416.92307519;4138.33333313;3809.74358884;4300.25641040;4562.56410326;4272.82051289;4169.48717935;4205.12820506
4203.58974352;4201.28205122;4695.25641123;4237.82051282;3774.35897339;2136.28204684;-0.00000896;-0.00000896;3417.94871622;4139.23076903;3774.35897339;4302.82051296;4634.48718032;4300.00000014;4172.69230756;4205.12820506
4202.69230763;4201.02564096;4865.38461671;4239.61538462;3975.64102509;2137.82050838;-0.00000896;-0.00000896;3415.25640852;4139.23076903;3777.69230672;4300.12820527;4696.15384713;4274.48717956;4172.69230756;4205.12820506
4201.41025634;4201.28205122;4729.23077028;4240.51282052;3912.43589674;2140.25640581;-0.00000896;-0.00000896;3386.53845974;4141.02564082;3774.74358877;4301.66666681;4600.38461615;4299.87179501;4172.30769217;4205.12820506
4203.58974352;4201.02564096;4634.23077007;4239.48717949;3944.23076861;2138.33332889;-0.00000896;-0.00000896;3386.66666486;4140.76923056;3876.79487103;4301.28205142;4661.28205219;4300.76923091;4172.56410243;4205.12820506
4201.41025634;4176.28205115;4764.23077035;4239.48717949;3808.46153756;2137.56409812;-0.00000896;-0.00000896;3386.15384435;4169.10256397;3845.38461455;4299.74358989;4600.76923154;4274.61538469;4172.17948704;4205.12820506
4202.17948711;4174.61538448;4697.69230867;4238.58974359;3808.71794782;2135.64102120;-0.00000896;-0.00000896;3386.02563922;4169.48717935;3716.28205017;4303.46153860;4599.87179564;4300.00000014;4172.30769217;4205.12820506
4201.41025634;4173.84615371;4826.66666792;4238.71794872;3944.87179425;2139.48717504;-0.00000896;-0.00000896;3383.07692127;4139.87179467;3779.61538365;4300.76923091;4666.79487270;4300.25641040;4172.43589730;4205.12820506
4201.02564096;4173.58974345;4791.79487298;4239.10256411;3845.51281968;2139.61538017;-0.00000896;-0.00000896;3380.64102384;4138.71794851;3745.25640922;4302.56410271;4566.41025711;4301.28205142;4171.02564089;4205.12820506
4201.79487173;4174.23076910;4760.51282163;4238.58974359;3846.15384532;2137.69230325;-0.00000896;-0.00000896;3355.51281864;4110.64102537;3909.10256341;4300.38461553;4693.46153944;4300.89743604;4172.43589730;4205.12820506
4201.15384609;4176.15384602;4765.51282163;4237.56410257;3808.71794782;2136.15384171;-0.00000896;-0.00000896;3383.20512640;4142.17948697;3847.56410173;4273.71794879;4598.33333410;4300.25641040;4172.43589730;4205.12820506
4201.28205122;4175.12820499;4859.35897568;4238.97435898;3843.33333250;2134.74358530;-0.00000896;-0.00000896;3384.35897256;4137.69230749;3811.79487090;4299.74358989;4697.69230867;4299.48717963;4172.30769217;4205.12820506
4175.76923063;4175.12820499;4859.74359107;4239.35897436;3844.74358891;2138.20512376;-0.00000896;-0.00000896;3383.97435717;4138.71794851;3811.66666577;4301.02564117;4699.10256508;4274.74358982;4172.94871781;4172.30769217
4174.48717935;4174.23076910;4863.84615517;4239.35897436;3977.05128150;2138.20512376;-0.00000896;-0.00000896;3354.87179300;4136.28205108;3809.48717859;4299.48717963;4796.53846272;4301.15384630;4172.82051269;4172.30769217
4173.71794858;4174.87179474;4563.20512890;4238.46153847;3709.87179376;2140.38461094;-0.00000896;-0.00000896;3353.33333146;4110.25640998;4039.99999959;4302.30769245;4563.33333403;4299.48717963;4172.69230756;4172.30769217
4172.69230756;4174.87179474;4700.51282149;4238.20512821;3618.20512689;2138.71794427;-0.00000896;-0.00000896;3354.48717761;4135.38461518;3716.28205017;4303.58974373;4629.87179571;4301.79487194;4172.56410243;4172.30769217
4172.43589730;4175.12820499;5054.48718123;4238.20512821;3779.87179390;2137.43589299;-0.00000896;-0.00000896;3381.92307512;4109.10256383;3847.94871712;4301.28205142;4631.53846238;4301.15384630;4173.20512807;4172.30769217
4170.64102551;4173.84615371;4667.56410347;4237.94871795;3843.07692225;2135.12820068;-0.00000896;-0.00000896;3383.33333153;4108.58974332;3908.84615316;4300.12820527;4601.66666743;4274.74358982;4171.15384602;4172.30769217
4169.48717935;4172.56410243;4957.30769384;4237.17948718;3840.25640943;2136.02563658;-0.00000896;-0.00000896;3382.82051102;4140.76923056;3913.71794803;4301.41025655;4793.71794990;4300.76923091;4172.56410243;4172.30769217
4168.46153833;4172.17948704;4794.23077042;4238.33333334;4037.30769189;2138.07691863;-0.00000896;-0.00000896;3385.25640845;4136.02564082;3911.41025572;4301.92307707;4767.05128317;4301.15384630;4172.43589730;4172.30769217
4168.84615371;4171.79487166;4827.17948843;4238.46153847;3679.61538344;2138.58973915;-0.00000896;-0.00000896;3384.35897256;4110.64102537;3877.82051206;4301.15384630;4927.43589890;4299.87179501;4172.69230756;4172.30769217
4142.43589723;4172.17948704;4926.41025787;4239.74358975;3809.74358884;2138.07691863;-0.00000896;-0.00000896;3385.76922897;4137.30769210;3782.17948621;4300.89743604;4759.74359086;4300.51282066;4172.82051269;4139.48717928
4141.02564082;4171.28205115;5094.10256591;4240.12820513;3842.56410173;2108.20512369;-0.00000896;-0.00000896;3415.38461365;4108.20512793;3944.10256348;4273.58974366;4863.58974491;4274.35897443;4173.20512807;4139.48717928
4138.97435877;4170.51282038;4793.97436016;4240.64102564;3843.97435814;2136.66666222;-0.00000896;-0.00000896;3418.84615211;4108.20512793;3810.89743500;4300.64102578;4595.89743667;4300.89743604;4172.56410243;4139.48717928
4136.79487159;4169.48717935;4700.64102662;4241.79487180;3648.71794747;2138.46153402;-0.00000896;-0.00000896;3420.76922904;4108.07692280;3976.66666611;4272.43589751;4466.41025690;4300.64102578;4172.43589730;4139.48717928
4108.33333306;4169.99999986;4663.07692398;4267.30769238;3746.15384512;2134.74358530;229.99999153;-0.00000896;3419.23076750;4137.43589723;3812.94871705;4300.89743604;4601.92307769;4300.76923091;4172.82051269;4106.66666639
4105.38461511;4168.97435884;4696.41025739;4268.84615392;3842.82051199;2171.66666229;229.99999153;-0.00000896;3414.48717775;4110.51282024;3976.28205073;4302.17948732;4695.00000098;4299.48717963;4174.99999986;4106.66666639
4077.82051248;4169.61538448;5027.30769398;4268.58974366;3845.76922994;2171.53845716;229.99999153;-0.00000896;3382.82051102;4108.84615357;3939.23076861;4301.92307707;4762.43589855;4299.48717963;4172.56410243;4073.84615350
4076.53846119;4171.02564089;5028.33333500;4268.20512828;3745.38461435;2140.64102120;229.99999153;-0.00000896;3383.20512640;4135.38461518;3873.58974283;4274.10256418;4728.07692412;4300.25641040;4172.17948704;4073.84615350
4076.15384581;4170.89743576;4827.30769356;4270.12820520;3873.58974283;2136.53845710;-0.00000896;-0.00000896;3384.10256230;4138.33333313;3744.74358871;4274.23076930;4568.58974429;4274.61538469;4172.56410243;4073.84615350
4074.23076889;4169.87179474;4825.89743715;4269.48717956;3713.71794761;2135.76922633;-0.00000896;-0.00000896;3380.51281871;4108.97435870;3775.89743493;4299.61538476;4562.05128275;4299.87179501;4172.69230756;4073.84615350
4074.87179453;4170.51282038;4563.58974429;4267.82051289;3908.46153777;2139.48717504;229.99999153;-0.00000896;3351.02563915;4138.20512800;3682.82051164;4299.74358989;4471.53846203;4300.51282066;4173.33333320;4073.84615350
4075.51282017;4171.92307679;4893.46153986;4270.00000007;3845.51281968;2172.69230332;-0.00000896;-0.00000896;3287.69230568;4138.97435877;3944.61538399;4302.82051296;4993.84615545;4299.74358989;4173.20512807;4073.84615350
4104.87179460;4173.20512807;4865.25641158;4267.69230777;3676.53846036;2173.07691870;229.99999153;-0.00000896;3284.61538260;4137.43589723;3945.12820451;4299.61538476;4759.61538573;4274.23076930;4173.46153833;4106.66666639
4108.33333306;4175.25641012;4832.17948843;4266.79487187;3583.71794733;2170.38461101;-0.00000896;-0.00000896;3287.69230568;4139.23076903;3749.35897332;4301.79487194;4666.53846245;4301.02564117;4172.94871781;4106.66666639
4135.89743569;4201.28205122;5225.89743799;4241.28205129;3774.99999903;2166.92307255;229.99999153;-0.00000896;3289.74358773;4140.12820492;3778.58974262;4299.74358989;4791.79487298;4301.53846168;4173.46153833;4139.48717928
4139.35897415;4201.15384609;4534.48718012;4239.10256411;3748.58974255;2166.92307255;-0.00000896;-0.00000896;3315.89743396;4137.69230749;3909.99999931;4299.87179501;4664.61538552;4299.87179501;4172.94871781;4139.48717928
4142.82051262;4176.02564089;4992.94871955;4240.12820513;3741.79487076;2168.84614947;229.99999153;-0.00000896;3318.33333139;4141.02564082;3941.41025579;4274.74358982;4700.51282149;4300.51282066;4173.58974345;4139.48717928
4170.76923063;4201.41025634;4700.51282149;4238.84615385;3713.58974248;2170.12820075;-0.00000896;-0.00000896;3318.07692114;4168.20512807;3778.46153749;4274.74358982;4600.38461615;4300.38461553;4173.58974345;4172.30769217
4172.05128192;4202.94871788;4700.12820610;4238.84615385;3617.30769099;2167.30768793;229.99999153;-0.00000896;3320.51281857;4141.92307672;3975.51281996;4274.61538469;4693.84615482;4301.79487194;4174.74358961;4172.30769217
4174.23076910;4202.69230763;4635.64102648;4240.25641026;3746.28205024;2167.94871357;-0.00000896;-0.00000896;3322.43589549;4143.46153826;3711.15384505;4299.87179501;4665.64102655;4301.66666681;4173.46153833;4172.30769217
4175.76923063;4201.92307686;5060.51282225;4240.38461539;3749.35897332;2169.48717511;229.99999153;-0.00000896;3348.20512633;4170.25641012;3946.15384553;4301.92307707;4662.43589834;4300.12820527;4175.25641012;4172.30769217
4201.02564096;4202.30769224;4635.38461622;4239.48717949;3747.69230665;2174.10255973;-0.00000896;-0.00000896;3321.79486985;4169.74358961;3909.87179418;4302.94871809;4629.61538545;4302.94871809;4173.07692294;4205.12820506
4175.38461525;4202.17948711;4829.87179613;4238.84615385;3677.94871677;2170.51281614;229.99999153;-0.00000896;3321.53845960;4143.33333313;4006.15384567;4299.48717963;4628.07692391;4299.74358989;4174.10256397;4172.30769217
4175.38461525;4202.30769224;4829.48718074;4237.69230770;3648.58974234;2140.38461094;-0.00000896;-0.00000896;3348.20512633;4174.74358961;3716.79487069;4299.61538476;4666.28205219;4300.12820527;4173.07692294;4172.30769217
4175.89743576;4176.28205115;4896.92307832;4236.53846154;3746.41025537;2167.17948281;229.99999153;-0.00000896;3347.69230582;4174.23076910;3749.61538358;4274.61538469;5056.79487354;4300.51282066;4173.20512807;4172.30769217
4176.28205115;4176.02564089;4831.53846279;4238.71794872;3910.89743521;2168.20512383;-0.00000896;-0.00000896;3320.12820319;4169.74358961;3842.94871712;4272.43589751;4665.89743680;4301.53846168;4172.82051269;4172.30769217
4175.89743576;4176.02564089;4764.35897547;4238.33333334;3678.97435780;2168.20512383;229.99999153;-0.00000896;3320.38461344;4168.84615371;3940.64102502;4300.00000014;4602.17948795;4300.89743604;4173.33333320;4172.30769217
4174.99999986;4175.64102551;4825.76923202;4238.97435898;3649.74358850;2169.99999563;-0.00000896;-0.00000896;3321.53845960;4142.43589723;3814.61538372;4273.97435905;4567.82051352;4273.33333341;4173.20512807;4172.30769217
4175.25641012;4175.89743576;4959.74359128;4237.82051282;3680.76922959;2171.79486742;229.99999153;-0.00000896;3320.12820319;4168.33333320;3880.51281975;4272.94871802;4726.41025746;4300.38461553;4173.33333320;4172.30769217
4173.07692294;4176.15384602;5024.74359142;4237.30769231;3710.25640915;2167.82050845;-0.00000896;-0.00000896;3319.74358780;4141.41025621;3814.99999910;4301.66666681;4829.48718074;4301.15384630;4173.84615371;4172.30769217
4172.56410243;4175.64102551;4726.79487284;4237.82051282;3711.92307582;2166.79486742;229.99999153;-0.00000896;3317.56410062;4143.33333313;3880.12820437;4300.25641040;4660.76923168;4299.61538476;4172.94871781;4172.30769217
4172.17948704;4175.76923063;4827.43589869;4236.66666667;3741.92307588;2166.53845716;-0.00000896;-0.00000896;3318.33333139;4142.30769210;4070.51282017;4300.00000014;4729.48718053;4300.25641040;4172.94871781;4172.30769217
4172.30769217;4175.76923063;4797.17948836;4236.66666667;3417.56410083;2166.41025204;229.99999153;-0.00000896;3320.25640831;4168.71794858;3777.94871698;4274.61538469;4761.92307804;4274.48717956;4173.58974345;4172.30769217
4172.30769217;4175.64102551;4797.17948836;4237.17948718;3779.87179390;2166.92307255;-0.00000896;-0.00000896;3320.25640831;4171.15384602;3842.17948635;4302.56410271;4535.64102627;4299.48717963;4173.33333320;4172.30769217
4172.05128192;4175.25641012;4891.41025780;4237.05128206;3711.15384505;2170.12820075;229.99999153;-0.00000896;3318.97435703;4169.99999986;3908.84615316;4299.61538476;4960.12820666;4299.87179501;4173.58974345;4172.30769217
4171.53846140;4175.38461525;4956.28205281;4236.15384616;3747.17948614;2169.61538024;-0.00000896;-0.00000896;3319.74358780;4141.92307672;3971.92307637;4299.61538476;4695.76923175;4273.97435905;4173.46153833;4172.30769217
4173.20512807;4175.38461525;4760.12820624;4237.69230770;3645.38461414;2169.99999563;229.99999153;-0.00000896;3320.76922883;4169.87179474;3807.17948628;4274.23076930;4598.97435974;4302.30769245;4173.20512807;4172.30769217
4173.33333320;4176.02564089;4794.74359093;4237.82051282;3748.07692204;2170.64102127;-0.00000896;-0.00000896;3320.38461344;4169.48717935;3912.56410187;4300.89743604;4794.10256529;4300.25641040;4172.82051269;4172.30769217
4174.48717935;4201.28205122;4766.66666778;4239.10256411;3650.64102439;2171.79486742;-0.00000896;-0.00000896;3319.61538267;4143.46153826;3943.20512758;4301.41025655;4600.38461615;4274.23076930;4172.56410243;4172.30769217
4175.25641012;4201.66666660;5157.56410451;4237.69230770;3813.97435807;2173.84614947;3.97435001;-0.00000896;3315.89743396;4168.20512807;3716.41025530;4299.74358989;4860.76923209;4300.76923091;4172.94871781;4172.30769217
4201.02564096;4202.17948711;4629.23077007;4238.20512821;3774.35897339;2169.99999563;229.99999153;-0.00000896;3314.87179293;4143.20512800;4006.15384567;4274.10256418;4661.02564193;4300.00000014;4173.20512807;4205.12820506
4202.69230763;4202.43589737;4797.69230888;4237.94871795;3485.76922917;2139.48717504;229.99999153;-0.00000896;3316.79486985;4174.23076910;3714.74358864;4300.89743604;4563.97435967;4301.02564117;4173.20512807;4205.12820506
4203.46153840;4203.07692301;4797.17948836;4237.30769231;3708.71794761;2169.99999563;229.99999153;-0.00000896;3318.84615190;4171.15384602;3682.17948600;4301.79487194;4667.30769321;4300.38461553;4171.15384602;4205.12820506
4203.58974352;4201.92307686;4796.92307811;4236.53846154;3778.46153749;2201.66666236;229.99999153;-0.00000896;3289.87179286;4173.20512807;3910.25640957;4299.61538476;4693.46153944;4300.38461553;4173.07692294;4205.12820506
4204.23076917;4202.17948711;4961.15384769;4236.53846154;3647.82051157;2172.05127768;-0.00000896;-0.00000896;3317.82051088;4171.66666653;3879.48717873;4300.00000014;4826.79487305;4301.28205142;4173.20512807;4205.12820506
4204.35897429;4202.17948711;4862.69230902;4235.64102564;3612.43589612;2137.43589299;-0.00000896;-0.00000896;3318.58974165;4169.87179474;3909.61538392;4272.30769238;4695.38461636;4302.17948732;4173.20512807;4205.12820506
4204.10256404;4202.43589737;4832.69230895;4235.64102564;3677.82051164;2141.28204684;-0.00000896;-0.00000896;3316.79486985;4170.38461525;3875.25640950;4300.38461553;4634.48718032;4301.92307707;4171.79487166;4205.12820506
4203.84615378;4202.30769224;4729.87179592;4234.74358975;3742.56410153;2140.25640581;-0.00000896;-0.00000896;3290.12820312;4169.35897422;3845.76922994;4299.74358989;4666.92307783;4301.92307707;4173.71794858;4205.12820506
4204.87179481;4202.05128199;5059.74359148;4235.00000000;3648.33333209;2140.38461094;-0.00000896;-0.00000896;3314.87179293;4174.48717935;3846.41025558;4300.76923091;4897.30769370;4299.87179501;4173.33333320;4205.12820506
4204.48717942;4203.33333327;4860.12820645;4235.51282052;3807.94871705;2168.71794434;-0.00000896;-0.00000896;3288.71794671;4171.28205115;3875.25640950;4300.51282066;4861.53846286;4301.79487194;4174.87179474;4205.12820506
4204.87179481;4202.43589737;4631.66666750;4234.74358975;3782.05128108;2169.35896999;-0.00000896;-0.00000896;3315.51281857;4173.07692294;3747.69230665;4300.00000014;4431.79487222;4300.76923091;4173.46153833;4205.12820506
4205.25641019;4202.43589737;4729.23077028;4235.00000000;3742.94871691;2169.87179050;-0.00000896;-0.00000896;3316.02563908;4173.20512807;4011.28205080;4301.79487194;4665.12820604;4301.28205142;4174.87179474;4205.12820506
4204.35897429;4202.94871788;4795.00000119;4233.84615385;3807.56410166;2171.02563665;-0.00000896;-0.00000896;3290.12820312;4169.23076910;3648.71794747;4301.92307707;4401.79487215;4300.12820527;4173.58974345;4205.12820506
4204.87179481;4203.71794865;4890.38461678;4207.94871788;3709.61538351;2170.76922640;-0.00000896;-0.00000896;3316.53845960;4172.94871781;3938.58974297;4300.64102578;5153.33333528;4301.41025655;4173.20512807;4205.12820506
4204.74358968;4203.33333327;4858.58974491;4209.10256404;3711.02563992;2172.17948281;-0.00000896;-0.00000896;3318.20512626;4172.56410243;3880.38461462;4302.05128219;4827.56410382;4274.61538469;4173.84615371;4205.12820506
4204.87179481;4202.94871788;4762.17948830;4208.46153840;3677.56410139;2174.23076486;-0.00000896;-0.00000896;3317.56410062;4139.74358954;3875.51281975;4299.87179501;4600.00000077;4300.12820527;4173.46153833;4205.12820506
4205.12820506;4202.05128199;4726.79487284;4207.94871788;3709.74358864;2170.38461101;-0.00000896;-0.00000896;3319.35897242;4172.94871781;3747.17948614;4301.28205142;4601.02564179;4299.61538476;4173.07692294;4205.12820506
4204.99999993;4203.33333327;4861.28205261;4207.56410250;3547.30769085;2171.15384178;-0.00000896;-0.00000896;3322.94871601;4174.10256397;3748.97435794;4299.48717963;4698.97435995;4300.51282066;4173.07692294;4205.12820506
4204.87179481;4202.56410250;4733.20512925;4208.58974352;3776.41025544;2171.02563665;-0.00000896;-0.00000896;3321.15384421;4169.99999986;3941.53846092;4300.38461553;4628.20512904;4274.61538469;4172.30769217;4205.12820506
4203.71794865;4202.43589737;4857.56410389;4233.84615385;3650.25640901;2172.05127768;-0.00000896;-0.00000896;3321.41025447;4168.33333320;3779.35897339;4301.02564117;4600.51282128;4300.00000014;4173.58974345;4205.12820506
4202.69230763;4202.17948711;4924.10256557;4235.12820513;3710.89743479;2167.17948281;-0.00000896;-0.00000896;3347.82051095;4173.20512807;4043.58974318;4300.51282066;4696.92307790;4299.87179501;4172.43589730;4205.12820506
4201.79487173;4201.66666660;4858.84615517;4234.10256411;3676.02563985;2168.58973922;-0.00000896;-0.00000896;3348.07692120;4174.61538448;3812.94871705;4302.82051296;4734.23077028;4274.35897443;4173.20512807;4205.12820506
4201.53846147;4175.25641012;4893.58974498;4235.38461539;3781.02564006;2166.28204691;-0.00000896;-0.00000896;3321.92307498;4171.79487166;3778.84615288;4301.66666681;4923.84615531;4300.89743604;4173.84615371;4205.12820506
4176.28205115;4175.76923063;4827.56410382;4235.38461539;3741.66666563;2170.89743152;-0.00000896;-0.00000896;3320.51281857;4171.41025628;3942.56410194;4301.79487194;4763.07692419;4301.41025655;4173.58974345;4172.30769217
4201.79487173;4176.02564089;4824.61538587;4235.51282052;3552.56410111;2172.43589306;-0.00000896;-0.00000896;3320.38461344;4173.33333320;4043.20512779;4302.30769245;4628.33333417;4301.53846168;4174.48717935;4205.12820506
4202.05128199;4201.15384609;4858.46153979;4236.15384616;3682.94871677;2171.92307255;-0.00000896;-0.00000896;3317.43589549;4172.94871781;3780.38461442;4301.92307707;4597.94871872;4300.12820527;4173.46153833;4205.12820506
4202.82051275;4202.05128199;4895.12820652;4235.76923077;3742.69230665;2168.07691870;-0.00000896;-0.00000896;3317.82051088;4169.23076910;3939.10256348;4299.61538476;4665.89743680;4301.66666681;4173.46153833;4205.12820506
4202.69230763;4201.28205122;4896.92307832;4234.61538462;3708.71794761;2169.87179050;-0.00000896;-0.00000896;3317.05128011;4171.92307679;3841.92307609;4301.28205142;4696.28205226;4301.28205142;4173.58974345;4205.12820506
4203.97435891;4201.15384609;4799.35897554;4235.38461539;3746.28205024;2140.89743145;229.99999153;-0.00000896;3318.20512626;4174.10256397;3811.41025551;4300.51282066;4631.02564186;4301.66666681;4171.53846140;4205.12820506
4203.07692301;4201.41025634;4792.05128324;4234.87179488;3813.20512731;2167.82050845;7.17947822;-0.00000896;3320.38461344;4172.82051269;3842.05128122;4303.46153860;4632.82051366;4301.66666681;4173.58974345;4205.12820506
4203.97435891;4201.79487173;4895.51282191;4234.74358975;3683.97435780;2167.43589306;4.48717053;-0.00000896;3319.99999806;4169.74358961;3941.66666605;4302.43589758;4760.00000112;4301.02564117;4172.82051269;4205.12820506
4203.97435891;4202.69230763;4826.92307818;4234.87179488;3779.48717852;2168.84614947;-0.00000896;-0.00000896;3320.89743396;4170.64102551;3749.23076819;4300.64102578;4530.12820576;4301.02564117;4174.10256397;4205.12820506
4204.48717942;4201.92307686;4962.69230922;4208.71794865;3715.25640915;2169.74358537;229.99999153;-0.00000896;3319.99999806;4168.46153833;3972.30769176;4300.25641040;5091.53846335;4300.64102578;4173.58974345;4205.12820506
4205.12820506;4202.56410250;4864.87179620;4209.10256404;3683.97435780;2169.35896999;229.99999153;-0.00000896;3319.61538267;4168.46153833;4038.07692266;4300.12820527;4795.51282170;4300.38461553;4173.20512807;4205.12820506
4205.25641019;4202.43589737;4697.56410354;4208.84615378;3649.87179362;2170.64102127;229.99999153;-0.00000896;3319.48717755;4138.84615364;3776.53846057;4300.76923091;4662.69230860;4302.69230784;4173.07692294;4205.12820506
4204.99999993;4203.20512814;4797.05128324;4235.12820513;3746.15384512;2168.58973922;229.99999153;-0.00000896;3319.99999806;4142.17948697;3912.94871726;4300.51282066;4827.94871920;4301.02564117;4173.58974345;4205.12820506
4205.76923070;4202.82051275;5058.20512995;4234.48717949;3708.84615274;2169.87179050;229.99999153;-0.00000896;3320.89743396;4138.58974339;3943.33333271;4300.89743604;4861.28205261;4300.25641040;4173.33333320;4205.12820506
4205.89743583;4203.33333327;5028.71795039;4234.87179488;3774.74358877;2169.87179050;229.99999153;-0.00000896;3320.51281857;4141.41025621;3774.61538365;4301.66666681;4792.94871913;4301.92307707;4174.10256397;4205.12820506
4205.64102558;4203.58974352;4763.46153958;4233.84615385;3846.79487096;2169.35896999;229.99999153;-0.00000896;3348.58974172;4172.94871781;3777.94871698;4300.12820527;4628.07692391;4301.15384630;4173.07692294;4205.12820506
4205.12820506;4202.56410250;4728.33333438;4235.89743590;3748.84615281;2166.41025204;229.99999153;-0.00000896;3347.69230582;4168.97435884;3879.48717873;4299.87179501;4564.10256480;4302.56410271;4172.82051269;4205.12820506
4204.61538455;4201.28205122;4831.53846279;4235.76923077;3873.46153770;2172.17948281;229.99999153;-0.00000896;3316.92307498;4168.84615371;3710.25640915;4302.43589758;4597.56410333;4300.51282066;4173.33333320;4205.12820506
4205.51282045;4203.33333327;4759.10256522;4235.00000000;3908.97435828;2204.48717518;229.99999153;-0.00000896;3289.61538260;4141.53846133;3809.48717859;4301.66666681;4701.02564200;4300.25641040;4173.58974345;4205.12820506
4208.20512814;4202.69230763;4891.15384755;4235.64102564;3877.56410180;2170.64102127;229.99999153;-0.00000896;3316.41025447;4170.64102551;3976.92307637;4300.76923091;4765.38461650;4300.25641040;4174.23076910;4205.12820506
4234.23076923;4204.23076917;4693.71794969;4235.12820513;3742.94871691;2167.56409819;229.99999153;-0.00000896;3320.12820319;4171.28205115;4006.15384567;4300.76923091;4568.58974429;4301.92307707;4173.71794858;4237.94871795
4233.97435898;4203.20512814;4697.69230867;4235.00000000;3909.23076854;2141.02563658;229.99999153;-0.00000896;3348.46153659;4171.02564089;3710.64102453;4271.66666674;4463.58974408;4301.92307707;4173.33333320;4237.94871795
4208.58974352;4203.46153840;4700.25641123;4234.48717949;3907.56410187;2169.99999563;229.99999153;-0.00000896;3348.84615197;4142.30769210;3808.97435807;4301.15384630;4693.46153944;4300.64102578;4173.07692294;4205.12820506
4208.58974352;4202.56410250;4861.79487312;4236.02564103;3910.25640957;2167.82050845;229.99999153;-0.00000896;3349.74358787;4142.17948697;3681.66666549;4300.64102578;4533.84615448;4302.05128219;4173.33333320;4205.12820506
4207.43589737;4202.94871788;4794.10256529;4236.92307693;3944.99999938;2169.61538024;229.99999153;-0.00000896;3347.94871608;4169.74358961;3975.51281996;4301.79487194;4727.56410361;4300.25641040;4173.07692294;4205.12820506
4206.02564096;4203.46153840;4764.10256522;4237.05128206;3808.97435807;2167.82050845;229.99999153;-0.00000896;3322.56410062;4168.97435884;3847.94871712;4301.79487194;4664.35897527;4300.89743604;4173.46153833;4205.12820506
4204.87179481;4204.74358968;4891.53846293;4236.53846154;3841.28205045;2167.56409819;229.99999153;-0.00000896;3319.48717755;4172.30769217;4038.97435856;4300.25641040;4794.61538580;4274.74358982;4172.94871781;4205.12820506
4204.23076917;4202.94871788;5059.87179661;4237.82051282;3877.69230693;2169.10255973;229.99999153;-0.00000896;3317.30769037;4172.05128192;3649.23076798;4301.41025655;4635.25641109;4300.38461553;4173.20512807;4205.12820506
4202.43589737;4202.56410250;4860.38461671;4235.64102564;4006.92307644;2168.84614947;229.99999153;-0.00000896;3317.56410062;4175.12820499;4006.41025593;4300.64102578;4927.94871941;4301.41025655;4173.33333320;4205.12820506
4202.30769224;4202.30769224;4897.05128344;4236.02564103;3678.84615267;2171.02563665;229.99999153;-0.00000896;3318.97435703;4175.12820499;4011.79487131;4299.74358989;4693.84615482;4299.74358989;4170.64102551;4205.12820506
4203.33333327;4201.92307686;4827.69230895;4236.02564103;3743.84615281;2168.58973922;229.99999153;-0.00000896;3319.23076729;4176.02564089;3780.51281954;4302.94871809;4665.38461629;4300.51282066;4174.99999986;4205.12820506
4203.20512814;4201.28205122;4828.20512946;4235.12820513;3808.71794782;2170.25640588;229.99999153;-0.00000896;3317.94871601;4173.20512807;3976.41025586;4301.53846168;4830.38461664;4274.48717956;4173.33333320;4205.12820506
4202.05128199;4201.92307686;5025.89743757;4235.51282052;3846.28205045;2168.58973922;229.99999153;-0.00000896;3319.10256216;4170.51282038;3843.84615302;4299.61538476;4858.33333466;4299.61538476;4174.23076910;4205.12820506
4202.17948711;4201.41025634;5088.20513002;4236.15384616;3778.20512724;2173.58973922;229.99999153;-0.00000896;3318.46153652;4174.74358961;3912.17948649;4301.15384630;4763.33333445;4300.89743604;4173.20512807;4205.12820506
4201.02564096;4202.69230763;4663.71794963;4237.17948718;3808.84615295;2171.15384178;229.99999153;-0.00000896;3316.79486985;4168.33333320;3780.89743493;4302.43589758;4398.33333368;4300.64102578;4174.35897422;4205.12820506
4201.92307686;4202.30769224;4766.41025753;4237.05128206;3845.76922994;2172.30768793;229.99999153;-0.00000896;3315.76922883;4168.46153833;4039.23076882;4300.64102578;4567.94871865;4273.97435905;4173.58974345;4205.12820506
4201.92307686;4201.92307686;4728.58974464;4236.53846154;3946.53846092;2141.41025197;229.99999153;-0.00000896;3315.25640831;4170.38461525;3683.46153728;4300.76923091;4465.00000049;4299.87179501;4173.46153833;4205.12820506
4201.66666660;4176.15384602;4897.82051421;4236.02564103;3944.74358912;2169.35896999;229.99999153;-0.00000896;3316.79486985;4172.43589730;3978.46153791;4273.58974366;5056.66666841;4301.79487194;4173.20512807;4205.12820506
4201.41025634;4175.76923063;4895.25641165;4236.53846154;3845.12820430;2169.10255973;229.99999153;-0.00000896;3314.87179293;4169.35897422;4010.38461490;4300.38461553;4531.15384678;4302.30769245;4173.58974345;4205.12820506
4202.56410250;4175.51282038;4897.82051421;4235.89743590;3777.43589647;2171.53845716;229.99999153;-0.00000896;3317.05128011;4141.92307672;3938.97435835;4300.51282066;4696.53846252;4300.00000014;4173.71794858;4205.12820506
4203.71794865;4175.89743576;4991.41025801;4236.79487180;3811.28205038;2171.15384178;229.99999153;-0.00000896;3317.69230575;4141.79487159;3748.33333229;4301.02564117;4760.64102676;4302.82051296;4173.71794858;4205.12820506
4203.58974352;4201.66666660;4696.28205226;4236.66666667;3913.33333264;2166.92307255;229.99999153;-0.00000896;3316.79486985;4170.25641012;3715.76922966;4301.28205142;4663.46153937;4301.79487194;4173.58974345;4205.12820506
4203.71794865;4201.53846147;5029.48718116;4236.02564103;3942.30769169;2169.23076486;-0.00000896;-0.00000896;3290.12820312;4168.46153833;3716.53846043;4302.94871809;4630.76923161;4300.12820527;4173.58974345;4205.12820506
4204.10256404;4201.92307686;4730.51282156;4236.02564103;3942.17948656;2168.58973922;-0.00000896;-0.00000896;3290.12820312;4141.28205108;4009.10256362;4301.41025655;4599.23077000;4300.51282066;4174.23076910;4205.12820506
4203.97435891;4202.17948711;4760.12820624;4233.97435898;3708.84615274;2167.82050845;229.99999153;-0.00000896;3315.76922883;4169.10256397;3811.02564013;4300.89743604;4533.84615448;4301.53846168;4173.20512807;4205.12820506
4205.12820506;4202.82051275;4926.79487326;4235.25641026;3709.48717838;2169.10255973;-0.00000896;-0.00000896;3316.92307498;4168.58974345;3875.89743514;4301.66666681;4728.71794976;4301.28205142;4173.07692294;4205.12820506
4205.76923070;4202.82051275;4930.38461685;4234.10256411;3777.69230672;2172.69230332;-0.00000896;-0.00000896;3317.94871601;4140.51282031;3744.74358871;4302.30769245;4766.15384727;4300.64102578;4173.20512807;4205.12820506
4205.25641019;4202.56410250;4897.17948857;4235.00000000;3781.41025544;2170.76922640;-0.00000896;-0.00000896;3318.71794678;4143.46153826;3617.30769099;4302.30769245;4663.97435988;4300.64102578;4175.25641012;4205.12820506
4205.51282045;4202.94871788;4599.10256487;4235.64102564;3879.87179411;2169.35896999;-0.00000896;-0.00000896;3317.43589549;4168.58974345;3973.33333278;4300.64102578;4469.74359023;4301.53846168;4173.46153833;4205.12820506
4206.41025634;4202.17948711;4695.38461636;4235.12820513;3815.25640936;2169.99999563;-0.00000896;-0.00000896;3318.84615190;4141.79487159;3845.25640943;4274.61538469;4665.51282142;4300.38461553;4176.02564089;4205.12820506
4205.38461532;4204.10256404;4863.84615517;4235.12820513;3681.53846036;2170.38461101;-0.00000896;-0.00000896;3320.12820319;4141.41025621;3745.89743486;4301.92307707;4830.00000125;4301.02564117;4173.07692294;4205.12820506
4205.64102558;4203.33333327;4897.94871934;4235.76923077;3782.17948621;2172.17948281;-0.00000896;-0.00000896;3319.23076729;4168.97435884;3943.20512758;4300.38461553;4695.38461636;4299.74358989;4174.87179474;4205.12820506
4207.43589737;4203.46153840;4959.10256564;4235.64102564;3679.61538344;2172.82050845;-0.00000896;-0.00000896;3318.07692114;4142.69230749;3847.56410173;4303.20512835;4730.25641130;4299.61538476;4173.33333320;4205.12820506
4207.30769224;4204.35897429;4799.35897554;4235.00000000;3746.41025537;2170.51281614;-0.00000896;-0.00000896;3317.30769037;4138.84615364;3875.76923001;4301.66666681;4666.41025732;4301.15384630;4172.94871781;4205.12820506
4207.17948711;4203.97435891;4826.15384741;4235.38461539;3681.53846036;2200.25640595;-0.00000896;-0.00000896;3317.30769037;4142.30769210;3943.07692246;4300.76923091;4698.07692405;4300.76923091;4175.38461525;4205.12820506
4207.05128199;4203.71794865;4929.35897582;4209.10256404;3681.15384498;2166.79486742;-0.00000896;-0.00000896;3317.30769037;4170.25641012;3779.87179390;4301.28205142;4700.76923175;4300.00000014;4173.07692294;4205.12820506
4206.66666660;4202.30769224;4765.64102676;4235.89743590;3812.82051192;2166.15384178;-0.00000896;-0.00000896;3316.53845960;4171.53846140;3878.07692232;4301.28205142;4897.82051421;4300.51282066;4173.07692294;4205.12820506
4208.46153840;4202.30769224;4863.58974491;4235.25641026;3748.07692204;2200.25640595;-0.00000896;-0.00000896;3316.28204934;4168.58974345;3942.69230707;4302.43589758;4564.23076993;4301.41025655;4173.33333320;4205.12820506
4208.20512814;4203.71794865;4795.00000119;4236.02564103;3743.46153742;2173.84614947;-0.00000896;-0.00000896;3318.71794678;4169.35897422;3809.10256320;4300.89743604;4599.48718026;4300.38461553;4173.58974345;4205.12820506
4209.10256404;4204.74358968;4831.66666792;4236.02564103;3780.12820416;2169.74358537;-0.00000896;-0.00000896;3319.10256216;4168.97435884;3844.35897353;4300.89743604;4569.23076993;4301.79487194;4173.71794858;4205.12820506
4208.97435891;4204.48717942;4726.79487284;4235.51282052;3906.28205059;2139.35896992;-0.00000896;-0.00000896;3319.61538267;4173.07692294;3779.48717852;4303.46153860;4699.23077021;4300.51282066;4172.69230756;4205.12820506
4207.82051275;4205.25641019;4892.94871934;4234.61538462;3912.82051213;2141.02563658;-0.00000896;-0.00000896;3318.97435703;4173.33333320;3649.48717824;4300.38461553;4630.00000084;4300.89743604;4173.58974345;4205.12820506
4208.07692301;4204.99999993;4700.25641123;4234.48717949;3972.82051227;2168.07691870;-0.00000896;-0.00000896;3318.07692114;4173.07692294;3911.92307623;4273.97435905;4596.79487256;4300.64102578;4173.20512807;4205.12820506
4233.84615385;4204.74358968;4796.41025760;4235.38461539;3711.02563992;2172.05127768;-0.00000896;-0.00000896;3316.66666472;4172.05128192;3845.12820430;4302.05128219;4598.84615461;4301.15384630;4173.58974345;4237.94871795
4208.97435891;4204.74358968;4958.07692461;4235.64102564;3711.28205017;2171.02563665;-0.00000896;-0.00000896;3316.53845960;4201.15384609;3880.76923001;4301.15384630;4793.33333452;4300.89743604;4173.20512807;4205.12820506
4208.97435891;4204.61538455;4765.25641137;4236.28205129;3876.79487103;2169.74358537;-0.00000896;-0.00000896;3290.12820312;4175.25641012;3711.79487069;4300.25641040;4529.74359037;4301.53846168;4173.20512807;4205.12820506
4233.84615385;4203.46153840;4827.82051408;4235.51282052;3909.61538392;2168.46153409;-0.00000896;-0.00000896;3315.76922883;4169.99999986;3946.02564040;4301.28205142;4760.12820624;4301.02564117;4173.58974345;4237.94871795
4234.10256411;4202.82051275;4794.23077042;4236.15384616;3813.58974269;2169.61538024;-0.00000896;-0.00000896;3315.64102370;4142.82051262;3972.17948663;4303.58974373;4667.17948809;4302.56410271;4170.51282038;4237.94871795
4235.12820513;4202.94871788;4828.97436023;4234.61538462;3913.33333264;2171.53845716;-0.00000896;-0.00000896;3315.51281857;4170.38461525;3908.97435828;4301.28205142;4729.23077028;4300.89743604;4173.84615371;4237.94871795
4236.28205129;4202.05128199;4830.25641151;4234.74358975;3809.48717859;2170.76922640;-0.00000896;-0.00000896;3316.66666472;4169.10256397;3775.76922980;4300.64102578;4956.15384769;4300.89743604;4171.92307679;4237.94871795
4236.15384616;4202.43589737;4893.07692447;4235.76923077;3878.07692232;2170.64102127;229.99999153;-0.00000896;3318.46153652;4141.28205108;3905.64102495;4301.41025655;4824.61538587;4300.38461553;4173.46153833;4237.94871795
4236.15384616;4203.07692301;4957.30769384;4235.64102564;3775.64102467;2167.82050845;229.99999153;-0.00000896;3319.61538267;4169.74358961;4041.53846113;4274.74358982;4601.66666743;4301.02564117;4173.33333320;4237.94871795
4235.89743590;4203.46153840;4893.97436037;4235.38461539;3776.41025544;2169.10255973;229.99999153;-0.00000896;3316.66666472;4171.66666653;3746.53846050;4299.61538476;4695.00000098;4302.30769245;4173.58974345;4237.94871795
4236.79487180;4203.84615378;4989.23077083;4236.92307693;3749.23076819;2199.87179057;229.99999153;-0.00000896;3288.33333132;4142.30769210;4011.66666618;4301.15384630;4727.17948823;4301.15384630;4173.71794858;4237.94871795
4238.84615385;4205.76923070;4794.74359093;4235.25641026;3683.71794754;2201.53845723;-0.00000896;-0.00000896;3287.56410055;4139.74358954;3776.28205031;4301.15384630;4567.43589813;4299.87179501;4173.46153833;4237.94871795
4239.61538462;4206.79487173;5021.79487347;4235.12820513;3877.30769155;2169.48717511;-0.00000896;-0.00000896;3314.87179293;4108.33333306;3713.20512710;4300.00000014;4858.20512953;4274.35897443;4175.25641012;4237.94871795
4240.64102564;4206.79487173;4825.38461664;4234.61538462;3910.12820444;2168.20512383;229.99999153;-0.00000896;3319.35897242;4139.48717928;3876.66666591;4301.02564117;4661.41025732;4302.82051296;4173.33333320;4237.94871795
4241.53846154;4206.53846147;4728.97436002;4233.84615385;3714.74358864;2168.84614947;-0.00000896;-0.00000896;3319.99999806;4139.23076903;3843.46153763;4300.89743604;4529.48718012;4302.69230784;4173.20512807;4237.94871795
4240.25641026;4206.02564096;4960.25641179;4236.15384616;3749.23076819;2170.25640588;229.99999153;-0.00000896;3320.51281857;4170.38461525;3748.71794768;4301.92307707;4499.35897492;4302.69230784;4171.02564089;4237.94871795
4241.53846154;4205.76923070;4825.38461664;4235.00000000;3776.02564006;2169.87179050;-0.00000896;-0.00000896;3318.84615190;4173.71794858;3944.23076861;4301.15384630;4731.41025746;4302.43589758;4173.20512807;4237.94871795
4239.23076923;4205.76923070;4660.76923168;4235.76923077;3715.38461428;2166.79486742;229.99999153;-0.00000896;3317.94871601;4172.69230756;3779.35897339;4301.79487194;4693.97435995;4300.64102578;4172.17948704;4237.94871795
4237.43589744;4206.02564096;4665.64102655;4234.87179488;3744.61538358;2167.43589306;-0.00000896;-0.00000896;3319.99999806;4171.79487166;3874.99999924;4301.28205142;4599.74359051;4301.53846168;4172.82051269;4237.94871795
4235.89743590;4204.48717942;4891.79487319;4209.10256404;3774.48717852;2166.41025204;229.99999153;-0.00000896;3319.74358780;4171.28205115;3974.87179432;4300.64102578;4696.15384713;4302.17948732;4173.33333320;4237.94871795
4234.23076923;4205.12820506;4961.28205281;4208.20512814;3714.87179376;2140.51281607;-0.00000896;-0.00000896;3321.41025447;4169.35897422;3774.35897339;4299.74358989;4767.05128317;4301.15384630;4173.07692294;4237.94871795
4209.10256404;4204.35897429;5158.97436092;4208.33333327;3843.97435814;2167.94871357;229.99999153;-0.00000896;3319.74358780;4173.20512807;3847.94871712;4300.00000014;4793.20512939;4300.25641040;4173.33333320;4205.12820506
4207.56410250;4203.71794865;4928.97436044;4207.69230763;3813.20512731;2169.35896999;-0.00000896;-0.00000896;3319.87179293;4168.58974345;3807.56410166;4300.12820527;4633.58974443;4299.74358989;4173.58974345;4205.12820506
4206.66666660;4202.05128199;4891.92307832;4208.97435891;3683.07692190;2168.71794434;229.99999153;-0.00000896;3322.82051088;4172.69230756;3979.35897381;4300.51282066;4668.20512911;4302.30769245;4173.20512807;4205.12820506
4205.12820506;4203.71794865;4894.23077062;4208.71794865;3613.97435766;2169.74358537;-0.00000896;-0.00000896;3321.15384421;4142.30769210;3749.23076819;4300.00000014;4635.64102648;4302.56410271;4172.94871781;4205.12820506
4205.12820506;4203.33333327;4635.38461622;4208.71794865;3810.51281961;2171.28204691;229.99999153;-0.00000896;3322.30769037;4171.53846140;3912.56410187;4301.53846168;4729.35897541;4299.74358989;4173.58974345;4205.12820506
4204.35897429;4205.12820506;5087.94871976;4234.48717949;3879.48717873;2173.46153409;-0.00000896;-0.00000896;3320.89743396;4170.38461525;3944.10256348;4301.92307707;4858.20512953;4274.48717956;4174.10256397;4205.12820506
4204.87179481;4205.12820506;4793.97436016;4234.48717949;3906.15384546;2173.84614947;229.99999153;-0.00000896;3320.12820319;4171.15384602;3910.38461469;4300.76923091;4635.38461622;4300.89743604;4173.07692294;4205.12820506
4203.71794865;4203.46153840;4832.43589869;4235.89743590;3841.41025558;2168.97435460;-0.00000896;-0.00000896;3319.87179293;4142.56410236;3847.30769148;4273.46153853;4663.97435988;4299.87179501;4173.71794858;4205.12820506
4205.25641019;4203.58974352;4925.64102710;4235.51282052;3682.17948600;2171.41025204;229.99999153;-0.00000896;3321.79486985;4168.33333320;3938.84615322;4300.25641040;4825.76923202;4300.64102578;4173.33333320;4205.12820506
4205.64102558;4203.71794865;4598.58974436;4236.53846154;3683.33333216;2172.56409819;-0.00000896;-0.00000896;3320.89743396;4142.69230749;3778.07692211;4302.82051296;4566.15384685;4301.28205142;4173.20512807;4205.12820506
4204.74358968;4204.61538455;4863.71795004;4235.64102564;3841.66666584;2168.46153409;229.99999153;-0.00000896;3320.51281857;4141.15384595;3779.99999903;4274.74358982;5023.71795039;4302.43589758;4173.46153833;4205.12820506
4206.02564096;4202.82051275;4667.94871886;4236.15384616;3910.51281982;2166.79486742;-0.00000896;-0.00000896;3319.87179293;4168.20512807;3941.92307630;4301.92307707;4469.10256459;4302.30769245;4173.97435884;4205.12820506
4206.28205122;4203.33333327;4667.17948809;4234.87179488;3842.94871712;2174.10255973;229.99999153;-0.00000896;3318.20512626;4142.82051262;3815.25640936;4300.89743604;4536.28205191;4300.64102578;4173.33333320;4205.12820506
4207.05128199;4204.10256404;4727.56410361;4235.38461539;3880.38461462;2171.66666229;-0.00000896;-0.00000896;3319.99999806;4168.84615371;3678.97435780;4272.56410264;4432.82051324;4301.28205142;4174.48717935;4205.12820506
4206.53846147;4204.10256404;4890.25641165;4235.38461539;3874.48717873;2140.64102120;229.99999153;-0.00000896;3321.02563908;4140.38461518;3744.74358871;4302.94871809;4763.46153958;4301.41025655;4172.56410243;4205.12820506
4206.28205122;4204.23076917;4990.89743750;4235.00000000;3844.48717866;2138.46153402;-0.00000896;-0.00000896;3321.92307498;4142.94871774;3943.33333271;4299.48717963;4797.82051401;4301.02564117;4173.33333320;4205.12820506
4205.12820506;4203.20512814;4701.15384713;4236.02564103;3677.82051164;2166.53845716;229.99999153;-0.00000896;3319.74358780;4143.07692287;4010.25640977;4301.02564117;4635.76923161;4300.00000014;4176.02564089;4205.12820506
4205.64102558;4203.58974352;4761.79487291;4235.00000000;3748.84615281;2166.79486742;-0.00000896;-0.00000896;3316.79486985;4172.94871781;3842.05128122;4300.76923091;4694.23077021;4301.92307707;4173.07692294;4205.12820506
4205.12820506;4203.20512814;4931.02564249;4237.17948718;3778.46153749;2168.33332896;229.99999153;-0.00000896;3289.87179286;4170.64102551;3912.17948649;4301.79487194;4831.15384741;4300.38461553;4173.46153833;4205.12820506
4206.15384609;4203.71794865;4733.97436002;4235.12820513;3912.56410187;2169.35896999;34.99999111;-0.00000896;3290.12820312;4174.87179474;3714.61538351;4300.12820527;4437.82051324;4300.38461553;4172.56410243;4205.12820506
4206.66666660;4204.10256404;4829.48718074;4235.64102564;3973.58974304;2168.20512383;7.17947822;-0.00000896;3289.10256209;4173.58974345;3906.41025572;4301.02564117;4700.38461636;4301.53846168;4173.33333320;4205.12820506
4207.17948711;4203.58974352;4792.43589862;4235.38461539;3814.99999910;2170.64102127;-0.00000896;-0.00000896;3315.12820319;4175.76923063;3939.99999938;4301.92307707;4633.97435981;4300.51282066;4173.07692294;4205.12820506
4207.94871788;4202.56410250;4796.79487298;4235.12820513;3746.15384512;2171.92307255;229.99999153;-0.00000896;3317.30769037;4171.53846140;3775.12820416;4302.94871809;4632.43589827;4300.38461553;4172.69230756;4205.12820506
4207.56410250;4204.35897429;4731.53846258;4233.97435898;3910.76923008;2172.17948281;229.99999153;-0.00000896;3318.20512626;4172.69230756;3943.97435835;4300.89743604;4667.05128296;4302.43589758;4173.33333320;4205.12820506
4207.17948711;4203.46153840;4961.02564256;4234.23076923;3844.48717866;2171.53845716;229.99999153;-0.00000896;3319.10256216;4171.66666653;3874.74358898;4300.25641040;4825.76923202;4302.17948732;4173.20512807;4205.12820506
4206.79487173;4205.12820506;4992.94871955;4233.97435898;3938.71794810;2169.87179050;229.99999153;-0.00000896;3322.05128011;4170.12820499;4005.64102516;4301.15384630;4726.53846258;4302.43589758;4173.46153833;4205.12820506
4205.64102558;4203.46153840;4859.48718081;4234.10256411;3873.46153770;2169.48717511;-0.00000896;-0.00000896;3322.05128011;4174.99999986;3842.05128122;4301.53846168;4694.87179585;4300.76923091;4173.33333320;4205.12820506
4206.02564096;4203.58974352;4961.79487333;4234.74358975;3709.48717838;2172.05127768;-0.00000896;-0.00000896;3321.53845960;4174.10256397;3913.33333264;4274.61538469;4829.61538587;4300.38461553;4171.92307679;4205.12820506
4204.74358968;4204.74358968;4930.00000146;4235.00000000;3744.74358871;2173.46153409;-0.00000896;-0.00000896;3319.87179293;4174.99999986;3778.97435801;4300.38461553;4760.89743701;4301.15384630;4173.46153833;4205.12820506
4204.99999993;4205.38461532;4798.84615503;4235.89743590;3878.07692232;2171.53845716;-0.00000896;-0.00000896;3317.56410062;4172.17948704;3681.28205010;4301.28205142;4531.66666730;4300.38461553;4172.43589730;4205.12820506
4205.25641019;4204.74358968;4627.94871879;4235.00000000;3879.23076847;2169.87179050;-0.00000896;-0.00000896;3319.48717755;4171.15384602;3844.48717866;4303.84615399;4402.56410292;4300.38461553;4173.33333320;4205.12820506
4206.02564096;4202.82051275;4796.79487298;4235.25641026;3776.92307595;2169.61538024;-0.00000896;-0.00000896;3320.64102370;4173.84615371;3912.56410187;4300.25641040;4662.69230860;4301.15384630;4173.58974345;4205.12820506
4205.89743583;4203.20512814;4926.28205275;4236.15384616;3908.84615316;2172.05127768;-0.00000896;-0.00000896;3319.35897242;4172.94871781;3748.46153742;4301.02564117;4729.10256515;4301.15384630;4173.71794858;4205.12820506
4205.89743583;4203.07692301;4896.79487319;4236.28205129;3978.20512765;2171.28204691;-0.00000896;-0.00000896;3317.69230575;4170.38461525;3878.97435821;4300.64102578;4824.87179613;4300.12820527;4173.33333320;4205.12820506
4207.43589737;4202.56410250;4628.84615468;4236.15384616;3873.33333257;2167.17948281;-0.00000896;-0.00000896;3319.87179293;4169.99999986;3743.07692204;4301.53846168;4401.15384651;4302.30769245;4173.33333320;4205.12820506
4207.05128199;4202.05128199;4728.07692412;4235.89743590;3944.48717887;2166.66666229;-0.00000896;-0.00000896;3321.66666472;4171.79487166;3976.41025586;4299.61538476;4696.66666764;4302.05128219;4173.20512807;4205.12820506
4206.28205122;4201.28205122;4857.56410389;4235.00000000;3617.56410125;2166.53845716;-0.00000896;-0.00000896;3318.84615190;4175.25641012;3844.87179404;4303.71794886;4826.41025766;4301.53846168;4173.58974345;4205.12820506
4204.99999993;4202.17948711;4896.79487319;4235.25641026;3711.66666556;2167.43589306;-0.00000896;-0.00000896;3318.97435703;4175.76923063;3780.38461442;4301.79487194;4730.64102669;4300.51282066;4174.61538448;4205.12820506
4204.61538455;4176.15384602;5127.17948906;4236.92307693;3845.51281968;2167.56409819;-0.00000896;-0.00000896;3319.74358780;4173.58974345;3875.76923001;4274.74358982;4761.15384727;4301.15384630;4175.25641012;4205.12820506
4203.58974352;4201.02564096;4858.71795004;4236.15384616;3776.28205031;2167.56409819;-0.00000896;-0.00000896;3319.99999806;4168.46153833;3978.84615329;4300.38461553;4597.82051359;4300.51282066;4173.20512807;4205.12820506
4203.58974352;4175.25641012;4862.43589876;4237.56410257;3711.02563992;2169.10255973;-0.00000896;-0.00000896;3319.35897242;4142.43589723;3814.35897346;4300.25641040;4600.12820590;4300.76923091;4173.71794858;4205.12820506
4203.33333327;4202.05128199;4763.20512932;4235.38461539;3845.76922994;2169.48717511;-0.00000896;-0.00000896;3319.35897242;4142.82051262;3842.17948635;4301.41025655;4694.61538559;4300.00000014;4172.94871781;4205.12820506
4203.33333327;4201.92307686;4895.51282191;4234.74358975;3847.56410173;2169.74358537;-0.00000896;-0.00000896;3318.07692114;4168.46153833;3746.28205024;4302.05128219;4956.53846307;4301.28205142;4173.33333320;4205.12820506
4202.17948711;4201.66666660;4923.58974505;4234.61538462;3946.15384553;2170.12820075;-0.00000896;-0.00000896;3319.10256216;4170.38461525;3944.61538399;4301.15384630;4661.41025732;4303.58974373;4173.46153833;4205.12820506
4202.69230763;4202.05128199;4992.56410417;4234.35897436;3879.23076847;2171.41025204;-0.00000896;-0.00000896;3317.94871601;4171.53846140;3946.28205066;4300.12820527;4793.46153965;4300.64102578;4173.46153833;4205.12820506
4202.82051275;4202.94871788;4766.41025753;4234.74358975;3905.64102495;2172.05127768;-0.00000896;-0.00000896;3318.07692114;4169.61538448;3747.05128101;4300.00000014;4602.43589820;4301.66666681;4173.97435884;4205.12820506
4203.46153840;4203.33333327;4828.71794997;4235.51282052;3847.05128122;2174.10255973;-0.00000896;-0.00000896;3318.84615190;4143.33333313;3809.74358884;4300.76923091;4600.89743667;4301.28205142;4173.58974345;4205.12820506
4203.46153840;4203.33333327;4830.12820638;4234.35897436;3939.87179425;2169.99999563;-0.00000896;-0.00000896;3319.48717755;4143.07692287;3745.51281947;4301.02564117;4698.71794969;4299.87179501;4173.20512807;4205.12820506
4203.71794865;4202.30769224;4857.43589876;4235.51282052;4038.07692266;2166.28204691;-0.00000896;-0.00000896;3320.12820319;4171.53846140;3939.99999938;4302.69230784;4960.51282205;4302.05128219;4173.20512807;4205.12820506
4204.10256404;4202.94871788;4892.94871934;4234.23076923;3775.64102467;2201.53845723;-0.00000896;-0.00000896;3316.79486985;4142.69230749;4040.51282010;4305.00000014;4761.02564214;4302.43589758;4173.33333320;4205.12820506
4206.02564096;4202.82051275;4897.82051421;4234.10256411;3683.07692190;2199.35897005;229.99999153;-0.00000896;3316.28204934;4141.92307672;3781.79487083;4303.33333348;4634.87179571;4302.17948732;4173.20512807;4205.12820506
4205.76923070;4203.58974352;5090.00000181;4235.00000000;3812.30769141;2169.48717511;0.25640130;-0.00000896;3318.58974165;4141.53846133;3746.41025537;4303.97435912;4634.23077007;4300.12820527;4173.07692294;4205.12820506
4205.64102558;4203.20512814;4959.35897589;4234.23076923;3848.07692225;2139.23076479;-0.00000896;-0.00000896;3320.38461344;4172.69230756;3877.82051206;4300.76923091;4830.76923202;4301.02564117;4173.46153833;4205.12820506
4206.02564096;4202.30769224;4923.97436044;4234.48717949;3779.87179390;2139.87179043;-0.00000896;-0.00000896;3319.48717755;4173.20512807;3876.02564027;4300.51282066;4662.69230860;4303.84615399;4173.33333320;4205.12820506
4207.05128199;4201.28205122;4792.43589862;4234.35897436;4008.71794824;2170.12820075;229.99999153;-0.00000896;3318.46153652;4139.48717928;3938.84615322;4301.41025655;4828.71794997;4302.43589758;4173.20512807;4205.12820506
4206.28205122;4202.05128199;4829.74359100;4234.61538462;3618.07692176;2170.38461101;229.99999153;-0.00000896;3318.58974165;4139.48717928;3847.05128122;4299.48717963;4897.82051421;4300.89743604;4173.33333320;4205.12820506
4208.20512814;4201.02564096;4927.43589890;4234.87179488;3712.43589633;2171.15384178;229.99999153;-0.00000896;3318.07692114;4169.48717935;3778.46153749;4301.66666681;4832.69230895;4301.15384630;4173.58974345;4205.12820506
4207.69230763;4201.28205122;5060.51282225;4237.56410257;3846.53846071;2170.89743152;229.99999153;-0.00000896;3315.25640831;4143.46153826;3971.53846099;4301.53846168;4566.28205198;4303.20512835;4173.58974345;4205.12820506
4207.43589737;4201.15384609;4564.74359044;4237.17948718;3842.69230686;2171.15384178;229.99999153;-0.00000896;3315.12820319;4169.74358961;3810.38461449;4300.12820527;4566.41025711;4300.89743604;4173.33333320;4205.12820506
4207.43589737;4201.92307686;4859.74359107;4236.41025641;3814.23076833;2170.51281614;229.99999153;-0.00000896;3315.38461344;4170.89743576;4044.10256369;4301.02564117;4730.25641130;4301.41025655;4175.38461525;4205.12820506
4207.69230763;4202.05128199;4799.61538580;4234.74358975;3879.87179411;2169.74358537;229.99999153;-0.00000896;3317.94871601;4142.56410236;3841.02564020;4301.41025655;4793.33333452;4302.43589758;4173.71794858;4205.12820506
4206.92307686;4202.30769224;4960.64102717;4234.48717949;3909.10256341;2169.61538024;229.99999153;-0.00000896;3318.20512626;4170.38461525;3778.33333236;4302.30769245;4924.10256557;4302.43589758;4173.07692294;4205.12820506
4206.53846147;4203.84615378;4861.02564235;4235.51282052;3978.58974304;2170.51281614;229.99999153;-0.00000896;3317.94871601;4169.87179474;3906.66666598;4299.48717963;4635.51282135;4301.15384630;4173.71794858;4205.12820506
4206.79487173;4204.10256404;4700.64102662;4234.87179488;3781.92307595;2171.92307255;229.99999153;-0.00000896;3318.97435703;4169.48717935;3971.66666611;4301.66666681;4469.10256459;4302.17948732;4173.46153833;4205.12820506
4205.51282045;4204.61538455;4700.00000098;4234.87179488;3873.20512744;2171.02563665;229.99999153;-0.00000896;3319.10256216;4169.87179474;3775.64102467;4301.53846168;4531.79487242;4302.05128219;4173.07692294;4205.12820506
4206.15384609;4204.35897429;4830.51282177;4234.61538462;3808.84615295;2172.56409819;229.99999153;-0.00000896;3317.43589549;4169.48717935;3747.05128101;4302.82051296;4633.97435981;4300.51282066;4172.82051269;4205.12820506
4205.38461532;4204.35897429;4826.02564228;4235.64102564;3809.61538372;2171.15384178;229.99999153;-0.00000896;3318.71794678;4170.38461525;3814.74358884;4302.17948732;4693.71794969;4301.02564117;4173.46153833;4205.12820506
4205.51282045;4203.84615378;4731.53846258;4236.41025641;3808.46153756;2168.07691870;229.99999153;-0.00000896;3320.64102370;4169.74358961;3842.30769148;4301.41025655;4662.43589834;4301.53846168;4173.33333320;4205.12820506
4205.89743583;4202.82051275;4666.15384706;4236.41025641;3781.79487083;2168.71794434;229.99999153;-0.00000896;3319.74358780;4169.23076910;4044.99999959;4272.94871802;4598.07692385;4303.33333348;4173.33333320;4205.12820506
4206.92307686;4201.53846147;4726.28205233;4236.02564103;3611.66666535;2168.97435460;229.99999153;-0.00000896;3318.33333139;4174.10256397;3716.79487069;4274.48717956;4628.58974443;4300.64102578;4173.33333320;4205.12820506
4205.25641019;4203.20512814;5122.43589932;4236.66666667;3875.64102488;2172.17948281;229.99999153;-0.00000896;3317.30769037;4169.23076910;3747.69230665;4302.43589758;4666.53846245;4301.79487194;4173.33333320;4205.12820506
4208.84615378;4201.66666660;4799.74359093;4236.41025641;3911.28205059;2170.64102127;229.99999153;-0.00000896;3318.58974165;4141.66666646;3807.56410166;4302.43589758;4566.92307762;4301.66666681;4173.58974345;4205.12820506
4208.71794865;4203.97435891;4726.79487284;4237.43589744;3844.61538379;2168.07691870;229.99999153;-0.00000896;3319.10256216;4168.84615371;3875.89743514;4300.64102578;4431.79487222;4302.05128219;4174.23076910;4205.12820506
4208.97435891;4203.33333327;4726.79487284;4237.94871795;4039.74358933;2167.69230332;229.99999153;-0.00000896;3318.20512626;4139.48717928;3876.66666591;4302.30769245;4794.35897554;4300.51282066;4172.82051269;4205.12820506
4234.61538462;4202.82051275;4858.07692440;4236.79487180;3612.94871663;2170.89743152;229.99999153;-0.00000896;3317.43589549;4169.87179474;3807.94871705;4302.56410271;4826.02564228;4301.66666681;4173.46153833;4237.94871795
4235.00000000;4203.33333327;4928.84615531;4237.17948718;3711.66666556;2167.30768793;229.99999153;-0.00000896;3317.17948524;4143.20512800;3813.07692218;4302.05128219;4731.28205233;4300.89743604;4175.64102551;4237.94871795
4234.35897436;4203.20512814;4957.17948871;4237.43589744;3841.66666584;2170.89743152;229.99999153;-0.00000896;3316.66666472;4173.20512807;3842.82051199;4300.64102578;4601.53846231;4301.28205142;4173.33333320;4237.94871795
4236.41025641;4203.07692301;4727.94871899;4237.30769231;3809.74358884;2168.58973922;229.99999153;-0.00000896;3288.97435696;4171.53846140;3946.28205066;4303.71794886;4727.05128310;4300.51282066;4173.07692294;4237.94871795
4235.51282052;4201.41025634;4766.15384727;4237.82051282;3808.71794782;2171.53845716;229.99999153;-0.00000896;3289.10256209;4171.28205115;3972.05128150;4301.02564117;4498.97435953;4300.64102578;4173.20512807;4237.94871795
4235.51282052;4201.53846147;4760.51282163;4237.17948718;3713.58974248;2172.56409819;229.99999153;-0.00000896;3315.25640831;4142.56410236;3714.23076812;4301.66666681;4565.12820583;4301.66666681;4173.07692294;4237.94871795
4234.74358975;4202.94871788;4896.15384755;4234.74358975;3912.17948649;2170.89743152;229.99999153;-0.00000896;3316.41025447;4140.38461518;3742.56410153;4274.48717956;4864.23077055;4300.64102578;4173.20512807;4237.94871795
4234.23076923;4203.33333327;4859.61538594;4235.12820513;3976.79487124;2169.48717511;229.99999153;-0.00000896;3317.17948524;4141.02564082;3842.82051199;4301.92307707;4858.46153979;4302.43589758;4173.33333320;4237.94871795
4208.97435891;4202.94871788;4793.58974477;4234.23076923;3745.25640922;2168.71794434;229.99999153;-0.00000896;3319.74358780;4170.51282038;3976.79487124;4302.05128219;4466.53846203;4301.66666681;4173.07692294;4205.12820506
4207.43589737;4202.82051275;4730.51282156;4233.84615385;3938.46153784;2171.15384178;229.99999153;-0.00000896;3318.46153652;4168.71794858;3745.64102460;4300.89743604;4631.92307776;4302.43589758;4173.46153833;4205.12820506
4206.28205122;4203.33333327;4865.51282184;4234.61538462;3846.66666584;2170.89743152;229.99999153;-0.00000896;3320.38461344;4142.56410236;3840.38461455;4303.20512835;4858.71795004;4302.05128219;4172.94871781;4205.12820506
4205.76923070;4204.10256404;4829.74359100;4233.84615385;3880.12820437;2172.94871357;229.99999153;-0.00000896;3319.23076729;4142.94871774;3775.38461442;4299.74358989;4727.94871899;4274.23076930;4173.58974345;4205.12820506
