Gyro-X;Gyro-Z;AF3;Gyro-Y;T7;Acc-X;Pz;QualityData_1;QualityData_2;Acc-Z;Acc-Y;T8;Mag-X;AF4;Mag-Z;Mag-Y;Mag-X;Gyro-X 
4207.17948711;4202.94871788;4207.56410250;4208.58974352;4892.43589883;2037.82050817;-0.00000896;-0.00000896;4468.07692357;4566.02564172;4044.74358933;4305.12820527;4137.30769210;4138.84615364;4206.79487173;4205.12820506
4207.05128199;4202.56410250;4302.94871809;4209.10256404;4828.33333459;2035.12820048;-0.00000896;-0.00000896;4467.94871844;4562.30769301;4104.74358947;4305.64102578;4174.48717935;4137.69230749;4207.30769224;4205.12820506
4206.15384609;4203.33333327;4300.25641040;4234.61538462;4827.05128331;2009.87179015;-0.00000896;-0.00000896;4468.58974408;4566.92307762;4009.10256362;4332.94871816;4171.92307679;4138.07692287;4207.17948711;4205.12820506
4207.17948711;4203.20512814;4267.30769238;4233.84615385;5190.64102766;2037.94871330;-0.00000896;-0.00000896;4466.92307741;4567.56410326;3971.79487124;4304.10256425;4108.71794844;4136.53846133;4235.12820513;4205.12820506
4206.41025634;4202.94871788;4274.74358982;4235.25641026;4962.69230922;2036.28204663;-0.00000896;-0.00000896;4468.20512870;4564.61538531;4008.33333285;4302.94871809;4174.48717935;4137.69230749;4208.58974352;4205.12820506
4206.66666660;4203.71794865;4300.76923091;4234.48717949;4831.92307818;2009.10255938;-0.00000896;-0.00000896;4467.05128254;4565.89743660;4109.23076896;4303.33333348;4203.71794865;4137.43589723;4207.30769224;4205.12820506
4206.41025634;4202.82051275;4335.12820534;4235.64102564;5055.76923251;2008.84614912;-0.00000896;-0.00000896;4467.43589793;4567.05128275;4108.20512793;4303.58974373;4171.79487166;4137.30769210;4206.28205122;4205.12820506
4206.53846147;4202.69230763;4303.84615399;4234.10256411;4897.43589883;2035.89743125;-0.00000896;-0.00000896;4468.33333382;4564.23076993;4107.82051255;4306.66666681;4266.79487187;4137.56410236;4207.17948711;4205.12820506
4206.53846147;4202.56410250;4304.48717963;4235.00000000;5022.43589911;2035.25640560;-0.00000896;-0.00000896;4468.58974408;4537.05128268;4039.35897395;4305.51282066;4172.43589730;4136.66666646;4208.97435891;4205.12820506
4204.48717942;4203.71794865;4268.58974366;4234.35897436;4732.82051387;2008.58973887;-0.00000896;-0.00000896;4468.71794921;4566.53846224;4071.53846119;4332.56410278;4205.76923070;4137.30769210;4207.05128199;4205.12820506
4205.51282045;4202.82051275;4405.51282086;4234.87179488;5056.66666841;2036.53845689;-0.00000896;-0.00000896;4468.33333382;4568.71794942;4073.20512786;4304.23076937;4201.53846147;4136.92307672;4207.43589737;4205.12820506
4204.87179481;4202.30769224;4337.94871816;4234.35897436;4764.74359086;2037.05127740;-0.00000896;-0.00000896;4466.92307741;4595.76923154;4074.10256376;4307.56410271;4237.05128206;4137.82051262;4207.17948711;4205.12820506
4204.10256404;4203.46153840;4237.82051282;4234.87179488;4896.66666806;2036.02563637;-0.00000896;-0.00000896;4467.82051331;4564.48718019;4040.76923036;4303.84615399;4168.33333320;4137.94871774;4207.43589737;4205.12820506
4205.38461532;4202.56410250;4235.00000000;4234.35897436;5060.76923251;2035.25640560;-0.00000896;-0.00000896;4467.30769280;4596.02564179;4070.76923043;4305.00000014;4136.41025621;4140.25641005;4207.43589737;4205.12820506
4205.89743583;4202.43589737;4234.61538462;4233.84615385;4635.64102648;2039.23076458;-0.00000896;-0.00000896;4465.89743639;4568.84615454;4070.51282017;4332.82051303;4173.20512807;4136.02564082;4207.56410250;4205.12820506
4205.38461532;4202.05128199;4365.38461567;4234.61538462;5023.07692475;2037.30768766;-0.00000896;-0.00000896;4464.74359023;4562.94871865;4107.82051255;4302.69230784;4170.25641012;4138.20512800;4234.10256411;4205.12820506
4204.74358968;4203.46153840;4333.97435919;4234.48717949;4963.07692461;2036.28204663;-0.00000896;-0.00000896;4465.25641075;4565.76923147;4075.38461504;4307.30769245;4207.69230763;4136.28205108;4207.56410250;4205.12820506
4204.10256404;4203.33333327;4240.25641026;4234.35897436;4764.23077035;2035.89743125;-0.00000896;-0.00000896;4467.43589793;4566.53846224;3971.92307637;4303.33333348;4105.51282024;4138.71794851;4207.43589737;4205.12820506
4204.48717942;4204.48717942;4206.28205122;4234.48717949;5024.74359142;2035.51281586;-0.00000896;-0.00000896;4466.15384664;4568.58974429;4011.41025593;4307.43589758;4109.99999973;4137.69230749;4207.17948711;4205.12820506
4204.61538455;4203.71794865;4235.89743590;4209.10256404;4927.43589890;2034.87179022;-0.00000896;-0.00000896;4466.28205177;4568.97435967;4037.43589702;4305.12820527;4103.58974332;4137.05128185;4207.94871788;4205.12820506
4205.76923070;4203.46153840;4337.43589765;4208.07692301;5155.00000195;2039.10255945;-0.00000896;-0.00000896;4466.02564152;4566.28205198;4104.48717921;4302.30769245;4170.76923063;4137.69230749;4207.30769224;4205.12820506
4205.51282045;4203.58974352;4303.20512835;4208.84615378;4956.92307846;2007.69230297;-0.00000896;-0.00000896;4468.33333382;4566.92307762;4042.17948677;4305.51282066;4139.48717928;4136.66666646;4207.43589737;4205.12820506
4206.15384609;4202.94871788;4339.10256431;4207.82051275;5093.97436078;2010.12820041;-0.00000896;-0.00000896;4466.53846203;4597.30769308;4041.41025600;4303.07692322;4169.74358961;4138.33333313;4207.30769224;4205.12820506
4205.51282045;4202.94871788;4237.82051282;4208.07692301;4897.56410396;2036.53845689;-0.00000896;-0.00000896;4467.82051331;4569.23076993;4038.46153805;4303.71794886;4141.02564082;4138.07692287;4207.17948711;4205.12820506
4206.28205122;4202.56410250;4398.84615420;4208.46153840;4861.02564235;2036.41025176;229.99999153;-0.00000896;4466.41025690;4567.43589813;4106.53846126;4304.35897450;4204.74358968;4137.56410236;4206.79487173;4205.12820506
4205.89743583;4202.43589737;4337.43589765;4207.56410250;4793.20512939;2007.69230297;229.99999153;-0.00000896;4469.74359023;4596.92307769;4175.51282038;4304.61538476;4241.79487180;4138.33333313;4207.30769224;4205.12820506
4205.64102558;4202.30769224;4306.66666681;4208.58974352;4891.92307832;2009.10255938;229.99999153;-0.00000896;4470.51282100;4566.02564172;4169.10256397;4303.97435912;4268.46153853;4137.05128185;4206.02564096;4205.12820506
4204.23076917;4176.28205115;4268.33333341;4208.71794865;4895.64102703;2037.69230304;229.99999153;-0.00000896;4469.35897485;4567.05128275;4110.51282024;4306.79487194;4204.35897429;4137.82051262;4207.30769224;4205.12820506
4203.97435891;4201.92307686;4240.38461539;4209.10256404;5091.15384796;2036.02563637;8243.97436746;-0.00000896;4469.74359023;4535.00000063;4139.61538441;4305.76923091;4237.30769231;4138.20512800;4234.87179488;4205.12820506
4204.61538455;4202.43589737;4430.76923119;4208.97435891;5057.69230943;2037.69230304;136.41024773;-0.00000896;4467.94871844;4563.84615454;4170.51282038;4307.17948732;4234.35897436;4138.07692287;4206.41025634;4205.12820506
4203.58974352;4202.69230763;4305.64102578;4234.87179488;4795.38461657;2036.41025176;229.99999153;-0.00000896;4470.38461587;4567.94871865;4169.35897422;4303.20512835;4270.76923084;4139.10256390;4207.05128199;4205.12820506
4203.58974352;4203.33333327;4301.41025655;4234.48717949;4865.38461671;2037.43589278;136.41024773;-0.00000896;4467.56410305;4568.46153916;4143.20512800;4303.97435912;4301.66666681;4137.56410236;4207.69230763;4205.12820506
4203.46153840;4202.82051275;4271.79487187;4236.02564103;4793.71794990;2009.23076451;229.99999153;-0.00000896;4466.79487229;4569.61538531;4140.89743569;4306.41025655;4176.28205115;4137.56410236;4207.69230763;4205.12820506
4204.10256404;4201.28205122;4237.30769231;4235.38461539;4960.89743743;2035.38461073;136.41024773;-0.00000896;4466.92307741;4565.76923147;4138.97435877;4332.56410278;4235.25641026;4137.56410236;4207.94871788;4205.12820506
4203.46153840;4201.66666660;4401.53846189;4235.76923077;4862.69230902;2035.51281586;229.99999153;-0.00000896;4466.28205177;4567.43589813;4236.79487180;4307.05128219;4236.66666667;4136.41025621;4208.33333327;4205.12820506
4204.61538455;4201.79487173;4300.00000014;4235.76923077;5027.69230936;2036.28204663;136.41024773;-0.00000896;4466.79487229;4594.87179564;4108.20512793;4304.61538476;4169.35897422;4137.94871774;4207.30769224;4205.12820506
4205.12820506;4201.41025634;4299.61538476;4234.23076923;4860.12820645;2007.30768759;229.99999153;-0.00000896;4466.79487229;4564.74359044;4044.61538420;4303.20512835;4201.15384609;4137.94871774;4207.94871788;4205.12820506
4204.74358968;4201.66666660;4301.15384630;4234.23076923;4960.76923230;2035.25640560;136.41024773;-0.00000896;4467.05128254;4567.05128275;4169.10256397;4305.51282066;4206.79487173;4136.53846133;4207.30769224;4205.12820506
4205.25641019;4201.15384609;4305.38461553;4208.84615378;4798.84615503;2009.23076451;229.99999153;-0.00000896;4467.43589793;4567.05128275;4201.28205122;4306.41025655;4202.30769224;4137.56410236;4208.07692301;4205.12820506
4205.89743583;4202.05128199;4338.46153867;4207.30769224;5126.15384803;2007.94871323;136.41024773;-0.00000896;4467.56410305;4567.82051352;4237.82051282;4306.79487194;4202.17948711;4136.53846133;4209.10256404;4205.12820506
4205.25641019;4201.66666660;4240.12820513;4207.82051275;4893.84615524;2035.89743125;229.99999153;-0.00000896;4470.25641075;4562.69230839;4106.66666639;4332.43589765;4201.15384609;4138.46153826;4207.56410250;4205.12820506
4204.87179481;4202.94871788;4272.05128212;4208.33333327;4731.53846258;2007.17948246;136.41024773;-0.00000896;4470.38461587;4569.10256480;4073.33333299;4304.87179501;4175.89743576;4138.33333313;4207.82051275;4205.12820506
4206.15384609;4201.79487173;4236.28205129;4207.56410250;4796.66666785;2036.15384150;229.99999153;-0.00000896;4468.84615434;4568.58974429;4077.43589709;4302.69230784;4169.35897422;4136.41025621;4207.69230763;4205.12820506
4204.99999993;4202.69230763;4300.25641040;4208.20512814;4864.23077055;2010.12820041;136.41024773;-0.00000896;4469.48717998;4569.74359044;4173.71794858;4306.53846168;4240.25641026;4138.07692287;4207.94871788;4205.12820506
4205.89743583;4201.15384609;4267.30769238;4207.05128199;4923.84615531;2037.05127740;229.99999153;-0.00000896;4470.76923126;4566.02564172;4141.15384595;4306.02564117;4168.84615371;4136.66666646;4207.30769224;4205.12820506
4204.87179481;4203.20512814;4234.87179488;4208.46153840;4960.25641179;2008.46153374;136.41024773;-0.00000896;4469.87179536;4564.23076993;4139.10256390;4305.76923091;4201.02564096;4137.82051262;4208.46153840;4205.12820506
4204.48717942;4202.82051275;4268.58974366;4234.10256411;4996.41025801;2009.61537989;229.99999153;-0.00000896;4470.38461587;4566.92307762;4106.15384588;4303.46153860;4108.71794844;4138.20512800;4207.30769224;4205.12820506
4203.97435891;4203.33333327;4269.61538469;4234.74358975;4960.25641179;2040.38461073;136.41024773;-0.00000896;4470.00000049;4566.66666737;4105.64102537;4303.84615399;4205.38461532;4139.23076903;4233.97435898;4205.12820506
4204.48717942;4202.94871788;4435.12820555;4234.61538462;4929.10256557;2008.97435425;229.99999153;-0.00000896;4469.10256459;4569.48718019;4238.84615385;4305.00000014;4267.82051289;4135.64102544;4207.17948711;4205.12820506
4204.48717942;4202.17948711;4339.35897457;4234.48717949;5060.51282225;2009.23076451;136.41024773;-0.00000896;4469.48717998;4598.07692385;4141.53846133;4304.23076937;4240.25641026;4136.79487159;4207.17948711;4205.12820506
4205.12820506;4201.92307686;4208.84615378;4235.64102564;4993.84615545;2008.97435425;229.99999153;-0.00000896;4468.84615434;4568.46153916;4076.41025607;4305.64102578;4077.30769196;4137.30769210;4205.89743583;4205.12820506
4205.38461532;4201.02564096;4207.69230763;4235.12820513;4992.69230929;2035.25640560;136.41024773;-0.00000896;4467.69230818;4566.92307762;4108.97435870;4304.48717963;4105.64102537;4136.28205108;4207.82051275;4205.12820506
4206.15384609;4174.87179474;4201.92307686;4235.76923077;4892.56410396;2009.74358502;229.99999153;-0.00000896;4469.35897485;4565.76923147;4107.17948691;4302.69230784;4169.10256397;4138.07692287;4207.43589737;4205.12820506
4205.76923070;4174.99999986;4336.66666688;4235.89743590;5158.71795067;2036.53845689;136.41024773;-0.00000896;4471.02564152;4568.07692378;4174.48717935;4307.05128219;4207.82051275;4139.87179467;4207.69230763;4205.12820506
4205.12820506;4201.28205122;4335.76923098;4236.79487180;4891.28205268;2036.66666201;229.99999153;-0.00000896;4470.64102613;4562.43589813;4102.82051255;4305.64102578;4238.97435898;4141.15384595;4208.97435891;4205.12820506
4204.99999993;4175.76923063;4303.07692322;4236.15384616;5024.87179654;2009.48717477;136.41024773;-0.00000896;4470.38461587;4563.46153916;4041.53846113;4305.89743604;4106.28205101;4138.58974339;4207.05128199;4205.12820506
4203.46153840;4201.41025634;4208.84615378;4236.53846154;5087.69230950;2010.12820041;229.99999153;-0.00000896;4469.87179536;4565.51282121;4102.69230742;4305.89743604;4139.35897415;4135.38461518;4206.41025634;4205.12820506
4204.74358968;4175.89743576;4268.71794879;4236.15384616;4863.20512953;2035.25640560;8212.43590585;-0.00000896;4469.87179536;4568.71794942;4173.20512807;4306.15384630;4143.07692287;4137.94871774;4207.30769224;4205.12820506
4203.33333327;4202.69230763;4235.64102564;4235.76923077;4668.33333424;2036.66666201;8274.35898291;-0.00000896;4467.82051331;4566.79487249;4137.82051262;4303.97435912;4170.89743576;4110.64102537;4206.15384609;4205.12820506
4202.94871788;4202.94871788;4273.33333341;4235.12820513;4963.71795025;2009.99999528;136.92306824;-0.00000896;4466.79487229;4566.66666737;4106.15384588;4302.94871809;4141.28205108;4137.82051262;4207.30769224;4205.12820506
4203.33333327;4202.69230763;4269.87179495;4235.12820513;5027.69230936;2035.89743125;229.99999153;-0.00000896;4466.41025690;4563.84615454;4041.79487138;4304.74358989;4168.33333320;4136.53846133;4207.56410250;4205.12820506
4203.84615378;4202.94871788;4304.10256425;4234.23076923;4956.79487333;2035.89743125;229.99999153;-0.00000896;4466.41025690;4567.17948788;4077.05128171;4304.87179501;4141.66666646;4137.82051262;4207.94871788;4205.12820506
4204.87179481;4202.17948711;4372.82051310;4208.33333327;4961.41025794;2035.51281586;229.99999153;-0.00000896;4467.05128254;4567.82051352;4205.64102558;4303.20512835;4175.89743576;4136.41025621;4207.17948711;4205.12820506
4204.99999993;4202.30769224;4266.79487187;4208.20512814;4830.64102690;2038.33332868;229.99999153;-0.00000896;4466.41025690;4567.82051352;4169.35897422;4305.38461553;4175.51282038;4137.30769210;4207.30769224;4205.12820506
4205.64102558;4203.46153840;4237.43589744;4208.33333327;5023.71795039;2037.82050817;-0.00000896;-0.00000896;4467.94871844;4563.46153916;4104.48717921;4304.48717963;4135.51282031;4136.66666646;4207.56410250;4205.12820506
4205.12820506;4202.05128199;4234.35897436;4209.10256404;4892.94871934;2038.33332868;-0.00000896;-0.00000896;4466.92307741;4564.10256480;4103.07692280;4302.94871809;4135.76923056;4137.69230749;4207.43589737;4205.12820506
4205.89743583;4202.94871788;4239.74358975;4208.07692301;4730.51282156;2035.38461073;-0.00000896;-0.00000896;4469.23076972;4567.94871865;4044.74358933;4303.84615399;4139.48717928;4137.05128185;4207.05128199;4205.12820506
4205.76923070;4202.56410250;4305.38461553;4209.10256404;4794.23077042;2036.66666201;-0.00000896;-0.00000896;4467.43589793;4567.05128275;4142.17948697;4304.61538476;4201.28205122;4137.82051262;4207.56410250;4205.12820506
4203.84615378;4203.20512814;4304.23076937;4208.46153840;4957.43589897;2035.76922612;-0.00000896;-0.00000896;4467.30769280;4568.97435967;4106.02564075;4304.61538476;4169.74358961;4136.15384595;4207.30769224;4205.12820506
4204.61538455;4204.10256404;4207.69230763;4207.82051275;4894.23077062;2008.46153374;-0.00000896;-0.00000896;4467.94871844;4564.74359044;4137.30769210;4306.28205142;4071.28205094;4137.82051262;4208.20512814;4205.12820506
4205.12820506;4201.92307686;4206.15384609;4208.84615378;4961.28205281;2037.17948253;-0.00000896;-0.00000896;4468.33333382;4566.53846224;4136.41025621;4303.71794886;4075.89743555;4136.41025621;4207.43589737;4205.12820506
4204.61538455;4203.20512814;4300.51282066;4207.82051275;4733.71794976;2039.74358509;-0.00000896;-0.00000896;4468.46153895;4566.92307762;4110.64102537;4305.89743604;4109.87179460;4136.41025621;4208.20512814;4205.12820506
4204.99999993;4203.84615378;4307.05128219;4209.10256404;5255.38461754;2008.84614912;-0.00000896;-0.00000896;4467.69230818;4568.46153916;4176.02564089;4307.43589758;4142.30769210;4138.07692287;4208.46153840;4205.12820506
4206.66666660;4201.92307686;4271.41025648;4207.56410250;4799.74359093;2009.35896964;-0.00000896;-0.00000896;4469.10256459;4597.94871872;4168.97435884;4302.69230784;4238.84615385;4137.69230749;4207.82051275;4205.12820506
4206.02564096;4202.05128199;4272.69230777;4208.20512814;5022.43589911;2006.66666195;-0.00000896;-0.00000896;4496.66666723;4595.76923154;4077.17948684;4305.76923091;4168.84615371;4137.30769210;4208.46153840;4205.12820506
4206.53846147;4176.28205115;4207.17948711;4207.56410250;4896.02564242;2035.76922612;-0.00000896;-0.00000896;4498.71794928;4569.48718019;4136.53846133;4306.92307707;4174.35897422;4136.41025621;4207.69230763;4205.12820506
4205.38461532;4176.02564089;4368.33333362;4234.74358975;4957.82051435;2009.87179015;-0.00000896;-0.00000896;4496.53846210;4563.46153916;4208.84615378;4306.79487194;4171.02564089;4138.20512800;4207.17948711;4205.12820506
4205.76923070;4176.15384602;4272.94871802;4234.61538462;5091.15384796;2039.74358509;-0.00000896;-0.00000896;4497.17948774;4567.17948788;4175.12820499;4306.79487194;4175.25641012;4136.28205108;4207.82051275;4205.12820506
4204.74358968;4202.43589737;4240.38461539;4235.64102564;4825.64102690;2035.25640560;-0.00000896;-0.00000896;4497.43589800;4564.61538531;4109.87179460;4305.76923091;4203.33333327;4138.58974339;4206.53846147;4205.12820506
4204.74358968;4201.53846147;4238.46153847;4234.35897436;4796.92307811;2036.66666201;-0.00000896;-0.00000896;4497.94871851;4565.25641096;4110.51282024;4304.10256425;4142.82051262;4137.69230749;4207.43589737;4205.12820506
4203.20512814;4202.69230763;4269.10256418;4235.00000000;4896.41025780;2039.10255945;-0.00000896;-0.00000896;4470.64102613;4562.82051352;4138.84615364;4303.33333348;4205.51282045;4137.94871774;4207.82051275;4205.12820506
4202.82051275;4201.92307686;4434.48717991;4236.02564103;4961.53846307;2035.89743125;-0.00000896;-0.00000896;4469.61538511;4565.38461608;4236.92307693;4304.87179501;4301.15384630;4136.15384595;4207.43589737;4205.12820506
4204.61538455;4201.66666660;4334.74358996;4234.61538462;4923.84615531;2038.46153381;-0.00000896;-0.00000896;4468.20512870;4567.05128275;4235.25641026;4304.87179501;4267.69230777;4137.30769210;4207.43589737;4205.12820506
4204.35897429;4202.43589737;4299.48717963;4235.51282052;4963.07692461;2039.23076458;-0.00000896;-0.00000896;4466.28205177;4569.48718019;4205.76923070;4306.92307707;4202.05128199;4138.33333313;4208.46153840;4205.12820506
4204.61538455;4202.30769224;4271.79487187;4234.35897436;4929.87179633;2037.17948253;-0.00000896;-0.00000896;4468.07692357;4565.38461608;4174.74358961;4305.76923091;4135.76923056;4137.30769210;4207.56410250;4205.12820506
4204.99999993;4201.92307686;4236.15384616;4234.87179488;4826.28205254;2035.38461073;-0.00000896;-0.00000896;4467.56410305;4565.89743660;4138.84615364;4305.25641040;4139.48717928;4137.43589723;4206.28205122;4205.12820506
4205.76923070;4202.69230763;4337.43589765;4233.84615385;5028.71795039;2036.53845689;-0.00000896;-0.00000896;4467.94871844;4567.43589813;4172.69230756;4303.07692322;4141.41025621;4136.92307672;4207.69230763;4205.12820506
4207.17948711;4202.43589737;4301.15384630;4209.10256404;4927.43589890;2006.28204656;-0.00000896;-0.00000896;4469.23076972;4595.12820590;4136.53846133;4306.79487194;4202.69230763;4137.69230749;4233.97435898;4205.12820506
4207.30769224;4202.30769224;4238.33333334;4208.07692301;5159.87179682;2036.02563637;229.99999153;-0.00000896;4470.12820562;4567.82051352;4072.05128171;4305.64102578;4168.58974345;4137.30769210;4207.43589737;4205.12820506
4206.28205122;4202.69230763;4239.35897436;4234.48717949;4891.53846293;2039.48717484;8245.51282899;-0.00000896;4470.89743639;4565.25641096;4011.53846106;4305.00000014;4109.87179460;4136.15384595;4207.69230763;4205.12820506
4206.41025634;4202.94871788;4266.66666674;4209.10256404;5025.25641193;2038.84614919;103.97435022;-0.00000896;4469.10256459;4565.51282121;4206.53846147;4307.05128219;4203.84615378;4136.41025621;4207.43589737;4205.12820506
4206.41025634;4203.84615378;4241.92307693;4208.84615378;4890.76923216;2008.84614912;8242.17949566;-0.00000896;4471.53846203;4567.56410326;4137.69230749;4304.48717963;4110.25640998;4110.51282024;4207.69230763;4205.12820506
4205.38461532;4204.10256404;4107.05128178;4208.97435891;4930.89743736;2035.25640560;229.99999153;-0.00000896;4497.05128261;4565.38461608;4041.92307651;4306.02564117;4076.53846119;4136.79487159;4207.43589737;4205.12820506
4205.25641019;4203.07692301;4369.10256438;4208.58974352;4896.53846293;2035.12820048;229.99999153;-0.00000896;4471.15384664;4567.05128275;4176.15384602;4306.41025655;4240.25641026;4138.20512800;4206.79487173;4205.12820506
4205.25641019;4203.84615378;4335.00000021;4234.74358975;4764.48718060;2036.79486714;229.99999153;-0.00000896;4469.48717998;4566.92307762;4174.99999986;4305.64102578;4301.02564117;4138.46153826;4207.30769224;4205.12820506
4205.89743583;4203.71794865;4503.71794928;4234.35897436;4995.89743750;2035.76922612;229.99999153;-0.00000896;4470.89743639;4597.82051359;4333.07692329;4307.17948732;4337.05128226;4135.89743569;4207.05128199;4205.12820506
4204.87179481;4203.84615378;4400.00000035;4234.61538462;4760.89743701;2035.38461073;229.99999153;-0.00000896;4470.00000049;4596.41025718;4304.10256425;4305.51282066;4302.94871809;4135.51282031;4205.38461532;4205.12820506
4205.64102558;4204.23076917;4338.58974380;4234.35897436;4924.48718095;2035.38461073;229.99999153;-0.00000896;4468.46153895;4596.53846231;4234.87179488;4304.35897450;4268.84615392;4137.94871774;4207.43589737;4205.12820506
4205.89743583;4202.17948711;4302.17948732;4234.48717949;4991.79487340;2035.38461073;229.99999153;-0.00000896;4467.94871844;4568.84615454;4237.30769231;4305.12820527;4202.05128199;4138.33333313;4207.94871788;4205.12820506
4205.25641019;4202.17948711;4300.89743604;4234.48717949;4990.38461699;2037.05127740;229.99999153;-0.00000896;4468.20512870;4567.43589813;4239.74358975;4305.89743604;4267.94871802;4136.79487159;4207.94871788;4205.12820506
4205.51282045;4202.56410250;4435.76923119;4235.12820513;5022.05128372;2037.30768766;229.99999153;-0.00000896;4468.20512870;4565.00000070;4333.33333355;4306.92307707;4266.92307700;4137.17948697;4207.82051275;4205.12820506
4205.51282045;4202.17948711;4405.00000035;4234.61538462;5022.43589911;2035.12820048;229.99999153;-0.00000896;4470.00000049;4569.87179557;4266.79487187;4303.58974373;4336.02564124;4136.92307672;4207.56410250;4205.12820506
4204.10256404;4201.79487173;4335.76923098;4235.64102564;4989.74359135;2008.84614912;229.99999153;-0.00000896;4470.25641075;4567.69230839;4239.48717949;4303.84615399;4206.28205122;4135.64102544;4207.94871788;4205.12820506
4203.97435891;4202.17948711;4370.38461567;4234.23076923;5023.20512988;2036.79486714;229.99999153;-0.00000896;4496.92307748;4567.17948788;4267.69230777;4306.53846168;4234.10256411;4137.56410236;4207.82051275;4205.12820506
4202.17948711;4201.15384609;4367.69230797;4234.35897436;4827.69230895;2037.17948253;229.99999153;-0.00000896;4470.00000049;4568.84615454;4205.89743583;4305.64102578;4173.84615371;4136.02564082;4207.94871788;4205.12820506
4202.94871788;4202.30769224;4403.58974394;4208.97435891;5092.69230950;2036.15384150;229.99999153;-0.00000896;4468.97435946;4569.61538531;4300.25641040;4302.69230784;4269.87179495;4137.69230749;4234.10256411;4205.12820506
4202.56410250;4202.94871788;4365.76923105;4208.20512814;4891.53846293;2038.07691843;229.99999153;-0.00000896;4468.71794921;4565.76923147;4236.15384616;4305.00000014;4174.23076910;4136.28205108;4207.56410250;4205.12820506
4203.07692301;4203.71794865;4303.84615399;4208.33333327;5090.76923258;2039.35896971;229.99999153;-0.00000896;4467.05128254;4564.35897506;4143.33333313;4302.56410271;4138.46153826;4110.64102537;4207.17948711;4205.12820506
4204.10256404;4202.94871788;4272.43589751;4208.33333327;4861.66666799;2009.10255938;229.99999153;-0.00000896;4467.82051331;4569.48718019;4203.84615378;4303.84615399;4202.56410250;4137.69230749;4207.69230763;4205.12820506
4203.71794865;4203.58974352;4400.25641061;4208.33333327;4931.02564249;2036.92307227;229.99999153;-0.00000896;4468.58974408;4569.48718019;4337.05128226;4305.64102578;4208.20512814;4136.28205108;4208.46153840;4205.12820506
4205.12820506;4203.07692301;4371.66666695;4207.17948711;5058.07692482;2037.69230304;229.99999153;-0.00000896;4469.74359023;4565.89743660;4305.00000014;4303.46153860;4273.07692315;4137.69230749;4207.69230763;4205.12820506
4205.76923070;4202.69230763;4307.17948732;4207.82051275;4961.28205281;2037.94871330;229.99999153;-0.00000896;4467.69230818;4569.23076993;4204.35897429;4305.12820527;4201.28205122;4137.30769210;4208.97435891;4205.12820506
4207.05128199;4202.94871788;4273.07692315;4207.69230763;4992.82051442;2037.69230304;229.99999153;-0.00000896;4471.28205177;4595.89743667;4137.82051262;4303.84615399;4140.64102544;4136.02564082;4207.43589737;4205.12820506
4207.05128199;4202.56410250;4299.87179501;4208.33333327;4863.71795004;2009.23076451;229.99999153;-0.00000896;4497.05128261;4595.38461615;4208.84615378;4307.30769245;4173.58974345;4136.15384595;4207.56410250;4205.12820506
4206.15384609;4202.82051275;4338.20512842;4208.58974352;4764.61538573;2036.79486714;229.99999153;-0.00000896;4497.56410312;4570.00000070;4339.48717970;4305.38461553;4300.25641040;4137.17948697;4207.56410250;4205.12820506
4206.02564096;4203.84615378;4371.79487208;4207.43589737;5026.02564270;2035.89743125;229.99999153;-0.00000896;4498.33333389;4598.07692385;4302.30769245;4306.02564117;4237.69230770;4136.28205108;4207.82051275;4205.12820506
4205.38461532;4204.35897429;4337.94871816;4208.97435891;4956.28205281;2037.94871330;229.99999153;-0.00000896;4497.30769287;4568.07692378;4300.51282066;4305.89743604;4239.87179488;4136.02564082;4207.82051275;4205.12820506
4205.25641019;4202.43589737;4366.92307720;4208.71794865;4959.74359128;2037.94871330;229.99999153;-0.00000896;4497.30769287;4567.82051352;4267.94871802;4304.74358989;4235.12820513;4138.33333313;4207.82051275;4205.12820506
4204.87179481;4202.82051275;4333.71794893;4208.84615378;4830.00000125;2008.33332861;229.99999153;-0.00000896;4498.46153902;4567.43589813;4203.20512814;4303.97435912;4204.23076917;4136.92307672;4207.69230763;4205.12820506
4205.64102558;4203.07692301;4366.15384644;4234.10256411;4832.56410382;2037.17948253;229.99999153;-0.00000896;4496.53846210;4569.74359044;4301.15384630;4307.30769245;4236.79487180;4110.38461511;4207.82051275;4205.12820506
4204.74358968;4202.05128199;4272.56410264;4233.84615385;4862.30769363;2036.53845689;229.99999153;-0.00000896;4470.89743639;4598.58974436;4207.94871788;4304.23076937;4168.20512807;4109.74358947;4207.69230763;4205.12820506
4205.89743583;4201.92307686;4266.79487187;4233.84615385;5023.71795039;2038.58973894;229.99999153;-0.00000896;4471.66666716;4596.92307769;4170.25641012;4302.82051296;4135.51282031;4136.66666646;4207.82051275;4205.12820506
4204.99999993;4202.56410250;4237.17948718;4234.48717949;4994.61538622;2038.07691843;229.99999153;-0.00000896;4470.51282100;4595.12820590;4204.23076917;4306.28205142;4205.38461532;4136.28205108;4206.92307686;4205.12820506
4204.99999993;4203.07692301;4399.23076958;4233.84615385;4859.74359107;2008.97435425;229.99999153;-0.00000896;4471.41025690;4569.48718019;4202.05128199;4304.74358989;4234.35897436;4135.64102544;4207.94871788;4205.12820506
4206.28205122;4201.41025634;4369.10256438;4235.64102564;4993.58974519;2009.74358502;229.99999153;-0.00000896;4496.66666723;4597.69230846;4267.43589751;4303.20512835;4302.43589758;4136.92307672;4207.94871788;4205.12820506
4204.99999993;4201.66666660;4333.33333355;4234.61538462;4962.82051435;2008.58973887;8270.76923932;-0.00000896;4500.38461594;4599.87179564;4234.10256411;4304.87179501;4205.89743583;4137.05128185;4208.07692301;4205.12820506
4204.99999993;4175.25641012;4240.25641026;4235.51282052;4993.58974519;2009.74358502;133.07691439;-0.00000896;4498.84615441;4567.94871865;4207.43589737;4303.58974373;4137.17948697;4138.07692287;4208.07692301;4205.12820506
4204.74358968;4175.64102551;4238.46153847;4235.76923077;4928.20512967;2009.74358502;229.99999153;-0.00000896;4471.28205177;4596.28205205;4202.30769224;4307.43589758;4173.84615371;4136.02564082;4207.43589737;4205.12820506
4204.23076917;4175.76923063;4340.12820534;4235.25641026;4896.02564242;2039.74358509;133.07691439;-0.00000896;4470.38461587;4569.10256480;4273.97435905;4305.12820527;4299.61538476;4137.94871774;4208.07692301;4205.12820506
4204.87179481;4201.02564096;4336.92307714;4236.15384616;5122.17948906;2035.89743125;-0.00000896;-0.00000896;4470.25641075;4568.07692378;4207.05128199;4304.61538476;4236.66666667;4137.30769210;4234.10256411;4205.12820506
4203.33333327;4201.92307686;4306.02564117;4236.41025641;5055.12820687;2039.10255945;-0.00000896;-0.00000896;4471.53846203;4570.00000070;4173.46153833;4307.05128219;4174.61538448;4139.23076903;4207.43589737;4205.12820506
4204.10256404;4201.02564096;4302.69230784;4235.76923077;4959.74359128;2039.23076458;-0.00000896;-0.00000896;4470.89743639;4568.33333403;4176.28205115;4304.10256425;4176.15384602;4137.17948697;4207.82051275;4205.12820506
4202.43589737;4201.41025634;4306.28205142;4235.76923077;4695.00000098;2041.92307227;-0.00000896;-0.00000896;4466.92307741;4568.58974429;4201.28205122;4306.15384630;4175.64102551;4139.87179467;4207.43589737;4205.12820506
4203.20512814;4176.28205115;4337.30769252;4236.28205129;4956.92307846;2037.05127740;-0.00000896;-0.00000896;4468.20512870;4566.66666737;4333.20512842;4305.38461553;4238.97435898;4135.38461518;4208.84615378;4205.12820506
4204.23076917;4201.41025634;4333.97435919;4234.48717949;4962.82051435;2036.15384150;-0.00000896;-0.00000896;4468.71794921;4595.76923154;4201.79487173;4332.56410278;4172.82051269;4137.05128185;4207.43589737;4205.12820506
4203.46153840;4201.92307686;4299.61538476;4235.76923077;4828.07692433;2036.41025176;-0.00000896;-0.00000896;4469.10256459;4594.87179564;4171.02564089;4303.71794886;4203.84615378;4136.92307672;4206.92307686;4205.12820506
4204.23076917;4202.17948711;4270.12820520;4233.97435898;4960.76923230;2037.43589278;-0.00000896;-0.00000896;4467.94871844;4595.12820590;4135.76923056;4303.84615399;4173.07692294;4136.53846133;4207.82051275;4205.12820506
4204.99999993;4202.30769224;4334.74358996;4208.58974352;4996.15384776;2008.97435425;-0.00000896;-0.00000896;4471.28205177;4597.05128282;4208.71794865;4306.02564117;4238.84615385;4137.56410236;4209.10256404;4205.12820506
4204.48717942;4202.05128199;4403.97435933;4208.71794865;4794.23077042;2008.71794400;-0.00000896;-0.00000896;4470.64102613;4570.00000070;4300.51282066;4304.35897450;4270.12820520;4137.17948697;4207.69230763;4205.12820506
4204.99999993;4201.41025634;4303.58974373;4207.82051275;5022.05128372;2035.76922612;-0.00000896;-0.00000896;4497.43589800;4567.82051352;4236.41025641;4305.51282066;4237.56410257;4110.38461511;4208.07692301;4205.12820506
4203.58974352;4201.79487173;4234.35897436;4208.97435891;4858.07692440;2035.64102099;-0.00000896;-0.00000896;4496.92307748;4567.82051352;4201.28205122;4305.76923091;4234.61538462;4137.82051262;4206.79487173;4205.12820506
4204.87179481;4202.43589737;4268.71794879;4208.33333327;4958.20512974;2038.46153381;-0.00000896;-0.00000896;4470.12820562;4596.15384692;4202.43589737;4332.56410278;4175.25641012;4136.92307672;4207.56410250;4205.12820506
4204.99999993;4202.05128199;4303.97435912;4208.20512814;4764.74359086;2010.12820041;-0.00000896;-0.00000896;4498.84615441;4568.20512890;4238.97435898;4333.97435919;4270.25641033;4138.58974339;4207.30769224;4205.12820506
4204.74358968;4202.05128199;4307.05128219;4207.56410250;5120.12820701;2035.38461073;-0.00000896;-0.00000896;4498.71794928;4595.51282128;4204.74358968;4305.64102578;4241.66666667;4135.64102544;4207.56410250;4205.12820506
4203.71794865;4201.79487173;4241.15384616;4208.58974352;4863.71795004;2035.51281586;-0.00000896;-0.00000896;4497.69230825;4568.07692378;4137.30769210;4303.97435912;4170.38461525;4137.05128185;4207.69230763;4205.12820506
4204.87179481;4201.41025634;4270.64102571;4233.97435898;5091.53846335;2009.99999528;-0.00000896;-0.00000896;4497.43589800;4566.41025711;4140.38461518;4305.89743604;4203.07692301;4137.43589723;4207.69230763;4205.12820506
4204.23076917;4201.66666660;4172.43589730;4234.74358975;4799.23077042;2036.92307227;-0.00000896;-0.00000896;4498.46153902;4569.48718019;4109.35897408;4302.94871809;4203.46153840;4137.56410236;4205.12820506;4205.12820506
4204.10256404;4202.82051275;4306.15384630;4235.25641026;4960.89743743;2038.20512355;-0.00000896;-0.00000896;4496.79487235;4569.48718019;4239.10256411;4301.66666681;4204.48717942;4137.82051262;4207.82051275;4205.12820506
4204.10256404;4202.82051275;4269.35897443;4234.35897436;5054.35897610;2008.84614912;-0.00000896;-0.00000896;4471.15384664;4596.28205205;4171.15384602;4306.02564117;4206.66666660;4136.02564082;4206.41025634;4205.12820506
4205.25641019;4201.79487173;4206.28205122;4236.02564103;4929.87179633;2035.64102099;-0.00000896;-0.00000896;4497.30769287;4569.35897506;4138.20512800;4305.00000014;4173.84615371;4137.94871774;4207.82051275;4205.12820506
4205.38461532;4201.41025634;4332.69230790;4235.76923077;4958.07692461;2035.76922612;-0.00000896;-0.00000896;4497.30769287;4565.51282121;4234.48717949;4303.58974373;4202.56410250;4135.64102544;4207.30769224;4205.12820506
4205.12820506;4201.02564096;4303.33333348;4236.28205129;5061.92307866;2037.94871330;-0.00000896;-0.00000896;4497.30769287;4568.58974429;4173.97435884;4301.92307707;4235.89743590;4136.79487159;4207.56410250;4205.12820506
4204.10256404;4175.76923063;4202.69230763;4235.38461539;4924.10256557;2039.99999535;-0.00000896;-0.00000896;4471.02564152;4569.74359044;4110.64102537;4302.30769245;4143.20512800;4136.02564082;4208.07692301;4205.12820506
4205.76923070;4176.15384602;4202.17948711;4236.28205129;5056.41025815;2039.23076458;229.99999153;-0.00000896;4470.51282100;4567.82051352;4077.05128171;4305.89743604;4140.89743569;4137.82051262;4207.17948711;4205.12820506
4204.48717942;4201.15384609;4174.23076910;4235.64102564;4830.38461664;2009.87179015;138.97435029;-0.00000896;4471.41025690;4595.25641102;4171.41025628;4306.53846168;4142.43589723;4139.10256390;4207.69230763;4205.12820506
4204.23076917;4201.92307686;4299.87179501;4235.12820513;4927.82051428;2037.43589278;8310.89744452;-0.00000896;4471.66666716;4565.89743660;4241.41025641;4305.38461553;4236.66666667;4136.66666646;4207.56410250;4205.12820506
4203.46153840;4202.56410250;4272.94871802;4235.76923077;4863.20512953;2037.56409791;164.10255549;-0.00000896;4470.38461587;4565.38461608;4108.97435870;4306.66666681;4202.69230763;4136.79487159;4205.64102558;4205.12820506
4204.35897429;4202.43589737;4237.82051282;4233.97435898;5090.00000181;2008.46153374;229.99999153;-0.00000896;4469.74359023;4566.28205198;4075.38461504;4305.64102578;4138.46153826;4136.15384595;4207.43589737;4205.12820506
4203.20512814;4202.05128199;4172.43589730;4235.12820513;5027.56410424;2035.25640560;229.99999153;-0.00000896;4470.00000049;4595.25641102;4103.97435870;4303.97435912;4140.76923056;4136.92307672;4205.76923070;4205.12820506
4203.71794865;4202.56410250;4271.15384623;4234.10256411;4923.07692454;2035.12820048;229.99999153;-0.00000896;4469.61538511;4568.97435967;4175.64102551;4306.15384630;4168.58974345;4136.79487159;4207.43589737;4205.12820506
4202.82051275;4201.79487173;4234.87179488;4208.84615378;5055.12820687;2035.64102099;229.99999153;-0.00000896;4469.61538511;4564.61538531;4172.30769217;4303.07692322;4173.46153833;4138.46153826;4207.82051275;4205.12820506
4204.48717942;4201.92307686;4203.71794865;4208.46153840;4830.12820638;2037.17948253;229.99999153;-0.00000896;4468.46153895;4596.41025718;4136.02564082;4332.69230790;4206.92307686;4136.15384595;4207.82051275;4205.12820506
4203.46153840;4203.46153840;4272.43589751;4234.23076923;4766.41025753;2036.02563637;229.99999153;-0.00000896;4468.84615434;4569.48718019;4142.82051262;4304.35897450;4234.48717949;4137.17948697;4207.05128199;4205.12820506
4205.38461532;4202.56410250;4202.43589737;4208.46153840;4828.33333459;2037.43589278;229.99999153;-0.00000896;4469.10256459;4568.33333403;4137.82051262;4303.84615399;4208.20512814;4110.64102537;4207.82051275;4205.12820506
4205.64102558;4203.46153840;4372.56410285;4208.97435891;4926.92307839;2035.64102099;229.99999153;-0.00000896;4468.97435946;4563.58974429;4208.58974352;4304.35897450;4237.30769231;4138.58974339;4233.97435898;4205.12820506
4207.05128199;4201.53846147;4301.53846168;4208.58974352;4990.51282211;2009.87179015;229.99999153;-0.00000896;4471.28205177;4569.61538531;4203.97435891;4332.69230790;4267.94871802;4110.38461511;4207.94871788;4205.12820506
4206.79487173;4202.05128199;4300.25641040;4208.71794865;4963.07692461;2036.92307227;229.99999153;-0.00000896;4471.53846203;4565.76923147;4171.41025628;4306.02564117;4202.17948711;4137.94871774;4207.43589737;4205.12820506
4206.02564096;4201.79487173;4300.12820527;4234.23076923;4956.79487333;2035.25640560;229.99999153;-0.00000896;4497.56410312;4562.43589813;4240.00000000;4304.74358989;4205.25641019;4135.38461518;4207.43589737;4205.12820506
4205.89743583;4203.33333327;4268.20512828;4208.46153840;4635.38461622;2036.66666201;229.99999153;-0.00000896;4498.20512876;4597.30769308;4204.23076917;4305.25641040;4241.15384616;4136.53846133;4207.56410250;4205.12820506
4204.74358968;4202.30769224;4340.12820534;4234.61538462;5089.61538643;2036.66666201;229.99999153;-0.00000896;4497.82051338;4569.61538531;4300.00000014;4303.97435912;4238.46153847;4136.79487159;4209.10256404;4205.12820506
4204.48717942;4202.94871788;4305.64102578;4208.84615378;4890.25641165;2036.28204663;229.99999153;-0.00000896;4498.20512876;4566.53846224;4175.51282038;4305.51282066;4209.10256404;4137.30769210;4207.94871788;4205.12820506
4204.74358968;4202.56410250;4267.56410264;4208.20512814;4925.25641172;2007.30768759;229.99999153;-0.00000896;4497.69230825;4564.61538531;4074.87179453;4304.48717963;4139.99999980;4136.53846133;4207.43589737;4205.12820506
4204.23076917;4201.92307686;4205.64102558;4208.71794865;4894.87179627;2008.84614912;229.99999153;-0.00000896;4498.07692364;4568.33333403;4137.30769210;4332.94871816;4170.89743576;4139.35897415;4207.82051275;4205.12820506
4203.58974352;4202.30769224;4299.48717963;4234.35897436;4828.20512946;2009.74358502;229.99999153;-0.00000896;4499.74359030;4570.00000070;4236.28205129;4302.30769245;4270.38461546;4137.43589723;4207.94871788;4205.12820506
4203.58974352;4202.69230763;4299.48717963;4208.97435891;5056.53846328;2036.79486714;229.99999153;-0.00000896;4497.17948774;4568.46153916;4238.58974359;4306.02564117;4236.66666667;4137.56410236;4207.56410250;4205.12820506
4205.12820506;4202.82051275;4237.94871795;4235.25641026;4928.58974505;2037.05127740;229.99999153;-0.00000896;4497.30769287;4566.15384685;4137.82051262;4305.25641040;4203.71794865;4136.28205108;4207.56410250;4205.12820506
4205.25641019;4201.41025634;4237.05128206;4235.12820513;4957.17948871;2035.25640560;229.99999153;-0.00000896;4497.05128261;4569.87179557;4071.79487145;4304.10256425;4136.02564082;4136.41025621;4207.17948711;4205.12820506
4205.64102558;4202.69230763;4137.56410236;4234.74358975;4961.66666820;2036.53845689;229.99999153;-0.00000896;4496.79487235;4569.10256480;4073.97435863;4332.43589765;4141.15384595;4136.92307672;4207.69230763;4205.12820506
4204.74358968;4201.79487173;4332.43589765;4235.12820513;4930.38461685;2007.17948246;229.99999153;-0.00000896;4496.92307748;4565.12820583;4206.15384609;4303.33333348;4205.12820506;4138.07692287;4207.94871788;4205.12820506
4203.84615378;4175.89743576;4267.94871802;4235.00000000;4992.82051442;2009.61537989;229.99999153;-0.00000896;4499.23076979;4565.64102634;4207.94871788;4307.43589758;4235.89743590;4136.28205108;4207.30769224;4205.12820506
4203.71794865;4176.15384602;4207.30769224;4236.02564103;4895.12820652;2038.07691843;229.99999153;-0.00000896;4498.07692364;4563.33333403;4173.20512807;4305.64102578;4208.84615378;4136.41025621;4205.51282045;4205.12820506
4202.69230763;4201.53846147;4205.12820506;4235.64102564;4995.25641186;2036.92307227;229.99999153;-0.00000896;4471.28205177;4566.66666737;4108.97435870;4304.23076937;4170.25641012;4137.30769210;4207.94871788;4205.12820506
4202.94871788;4201.92307686;4240.12820513;4236.02564103;4896.41025780;2037.56409791;229.99999153;-0.00000896;4471.02564152;4567.94871865;4172.05128192;4304.74358989;4206.92307686;4136.66666646;4207.30769224;4205.12820506
4203.84615378;4203.07692301;4333.20512842;4235.51282052;5027.56410424;2038.84614919;229.99999153;-0.00000896;4470.64102613;4570.00000070;4176.15384602;4302.82051296;4204.74358968;4136.53846133;4207.43589737;4205.12820506
4203.97435891;4202.56410250;4301.92307707;4235.25641026;4993.33333494;2034.99999535;229.99999153;-0.00000896;4469.74359023;4567.30769301;4136.41025621;4304.35897450;4237.56410257;4135.76923056;4208.71794865;4205.12820506
4204.23076917;4202.05128199;4202.82051275;4234.10256411;5087.56410437;2037.56409791;229.99999153;-0.00000896;4471.02564152;4569.10256480;4073.58974325;4307.30769245;4172.69230756;4136.66666646;4207.69230763;4205.12820506
4204.99999993;4175.89743576;4236.41025641;4235.64102564;4994.35897596;2040.64102099;229.99999153;-0.00000896;4470.00000049;4568.20512890;4136.53846133;4306.41025655;4170.12820499;4137.82051262;4205.89743583;4205.12820506
4205.76923070;4201.53846147;4174.23076910;4234.10256411;5022.94871962;2037.94871330;229.99999153;-0.00000896;4469.61538511;4567.43589813;4174.10256397;4306.41025655;4172.43589730;4110.51282024;4207.56410250;4205.12820506
4206.15384609;4176.02564089;4272.56410264;4234.10256411;5218.46154055;2036.02563637;229.99999153;-0.00000896;4470.25641075;4568.97435967;4238.58974359;4306.02564117;4207.82051275;4136.15384595;4204.74358968;4205.12820506
4205.89743583;4202.82051275;4204.99999993;4234.10256411;4891.53846293;2035.12820048;229.99999153;-0.00000896;4497.05128261;4567.30769301;4107.30769203;4303.20512835;4171.15384602;4137.43589723;4207.30769224;4205.12820506
4207.43589737;4202.30769224;4268.97435905;4209.10256404;4727.94871899;2009.87179015;8245.00000848;-0.00000896;4498.84615441;4596.79487256;4106.79487152;4305.00000014;4204.99999993;4136.66666646;4207.43589737;4205.12820506
4207.17948711;4201.41025634;4207.82051275;4234.61538462;4956.79487333;2009.10255938;8238.84616233;-0.00000896;4498.33333389;4569.35897506;4109.74358947;4304.35897450;4172.05128192;4137.30769210;4208.20512814;4205.12820506
4207.43589737;4176.15384602;4304.74358989;4234.10256411;4865.25641158;2036.02563637;229.99999153;-0.00000896;4499.48718005;4568.84615454;4206.02564096;4303.71794886;4203.33333327;4110.64102537;4207.17948711;4205.12820506
4205.64102558;4202.17948711;4273.84615392;4235.89743590;5190.12820715;2036.41025176;8238.84616233;-0.00000896;4502.69230825;4567.05128275;4204.61538455;4305.51282066;4235.64102564;4137.17948697;4207.82051275;4205.12820506
4205.51282045;4201.66666660;4239.74358975;4234.61538462;4891.28205268;2037.30768766;-0.00000896;-0.00000896;4499.10256466;4569.23076993;4141.15384595;4333.71794893;4168.33333320;4137.17948697;4207.82051275;4205.12820506
4205.12820506;4202.17948711;4201.53846147;4235.76923077;4863.97436030;2034.99999535;-0.00000896;-0.00000896;4499.35897492;4563.84615454;4110.25640998;4304.35897450;4204.35897429;4137.30769210;4207.17948711;4205.12820506
4204.99999993;4201.02564096;4172.56410243;4235.89743590;4792.69230888;2007.94871323;-0.00000896;-0.00000896;4500.38461594;4566.02564172;4072.94871761;4305.64102578;4169.10256397;4139.10256390;4207.30769224;4205.12820506
4203.07692301;4176.28205115;4306.66666681;4236.92307693;4861.41025773;2035.89743125;-0.00000896;-0.00000896;4497.94871851;4569.23076993;4208.07692301;4302.69230784;4237.94871795;4136.92307672;4207.05128199;4205.12820506
4202.30769224;4175.25641012;4270.64102571;4237.82051282;5025.64102731;2038.71794407;-0.00000896;-0.00000896;4470.76923126;4566.02564172;4143.07692287;4305.25641040;4236.92307693;4136.41025621;4207.17948711;4205.12820506
4201.79487173;4202.30769224;4168.20512807;4238.84615385;4994.48718109;2037.43589278;-0.00000896;-0.00000896;4468.84615434;4596.79487256;4137.94871774;4306.15384630;4108.97435870;4136.79487159;4207.17948711;4205.12820506
4203.46153840;4203.46153840;4107.43589716;4238.07692308;4929.23077069;2037.43589278;-0.00000896;-0.00000896;4468.58974408;4568.71794942;4109.35897408;4303.07692322;4106.79487152;4136.92307672;4207.69230763;4205.12820506
4203.46153840;4201.66666660;4171.02564089;4236.79487180;4896.02564242;2036.15384150;-0.00000896;-0.00000896;4467.43589793;4567.43589813;4103.46153819;4304.10256425;4142.17948697;4136.02564082;4207.56410250;4205.12820506
4204.74358968;4201.79487173;4300.38461553;4237.94871795;4894.23077062;2035.51281586;-0.00000896;-0.00000896;4466.15384664;4565.25641096;4174.35897422;4303.71794886;4174.61538448;4138.97435877;4208.84615378;4205.12820506
4204.74358968;4176.02564089;4208.33333327;4237.17948718;4996.53846314;2010.12820041;-0.00000896;-0.00000896;4465.64102613;4566.53846224;4168.71794858;4305.51282066;4241.53846154;4136.79487159;4207.69230763;4205.12820506
4205.51282045;4201.66666660;4169.23076910;4237.69230770;4730.76923182;2038.07691843;-0.00000896;-0.00000896;4466.15384664;4568.07692378;4110.12820485;4333.46153867;4173.84615371;4138.07692287;4207.69230763;4205.12820506
4206.02564096;4176.15384602;4140.89743569;4238.20512821;4830.51282177;2038.46153381;-0.00000896;-0.00000896;4465.76923126;4567.30769301;4136.53846133;4305.89743604;4136.28205108;4137.82051262;4207.05128199;4205.12820506
4206.15384609;4201.41025634;4208.33333327;4236.92307693;4730.12820617;2009.74358502;-0.00000896;-0.00000896;4467.30769280;4564.74359044;4139.74358954;4306.66666681;4109.23076896;4135.64102544;4207.94871788;4205.12820506
4205.25641019;4176.28205115;4201.92307686;4237.17948718;5285.38461761;2035.76922612;-0.00000896;-0.00000896;4467.43589793;4594.87179564;4174.10256397;4305.12820527;4137.30769210;4137.05128185;4207.69230763;4205.12820506
4204.99999993;4201.41025634;4076.79487145;4237.69230770;4995.38461699;2035.51281586;-0.00000896;-0.00000896;4466.79487229;4595.51282128;4136.53846133;4304.87179501;4106.53846126;4136.28205108;4207.56410250;4205.12820506
4203.97435891;4202.30769224;4107.69230742;4235.89743590;5024.23077090;2035.89743125;-0.00000896;-0.00000896;4465.64102613;4566.15384685;4071.02564068;4304.61538476;4071.66666632;4137.05128185;4207.82051275;4205.12820506
4204.61538455;4175.76923063;4109.23076896;4235.76923077;4824.74359100;2035.64102099;-0.00000896;-0.00000896;4465.25641075;4564.74359044;4040.89743548;4306.41025655;4104.74358947;4136.41025621;4206.53846147;4205.12820506
4203.97435891;4201.92307686;4267.94871802;4234.87179488;5054.61538636;2034.99999535;-0.00000896;-0.00000896;4466.41025690;4563.71794942;4202.69230763;4305.00000014;4202.17948711;4136.79487159;4207.43589737;4205.12820506
4203.97435891;4201.92307686;4135.51282031;4208.58974352;4794.48718067;2036.53845689;-0.00000896;-0.00000896;4465.12820562;4568.58974429;4172.94871781;4306.15384630;4139.74358954;4137.56410236;4207.94871788;4205.12820506
4203.97435891;4201.28205122;4043.58974318;4233.97435898;5060.51282225;2035.51281586;-0.00000896;-0.00000896;4465.64102613;4566.02564172;4104.23076896;4332.43589765;4109.10256383;4136.92307672;4207.69230763;4205.12820506
4204.48717942;4203.71794865;4044.35897395;4207.69230763;4863.20512953;2007.05127733;-0.00000896;-0.00000896;4465.64102613;4564.48718019;4071.66666632;4332.56410278;4039.48717907;4137.82051262;4206.92307686;4205.12820506
4203.97435891;4202.30769224;4076.15384581;4234.10256411;4897.30769370;2037.43589278;-0.00000896;-0.00000896;4465.64102613;4569.61538531;4107.05128178;4305.25641040;4107.43589716;4137.82051262;4208.71794865;4205.12820506
4204.61538455;4201.53846147;4169.23076910;4208.33333327;4827.43589869;2037.56409791;-0.00000896;-0.00000896;4465.64102613;4568.46153916;4175.76923063;4305.12820527;4169.10256397;4136.15384595;4207.94871788;4205.12820506
4205.12820506;4201.41025634;4137.30769210;4208.07692301;4732.30769335;2039.10255945;-0.00000896;-0.00000896;4466.66666716;4563.33333403;4070.12820478;4305.89743604;4106.02564075;4137.30769210;4207.30769224;4205.12820506
4206.66666660;4201.15384609;4076.92307658;4208.07692301;5088.07692489;2038.46153381;229.99999153;-0.00000896;4467.43589793;4565.38461608;4074.99999966;4306.53846168;4104.74358947;4137.69230749;4207.82051275;4205.12820506
4205.51282045;4201.92307686;4104.23076896;4208.20512814;5057.43589918;2009.74358502;229.99999153;-0.00000896;4468.07692357;4566.92307762;4103.07692280;4304.74358989;4073.20512786;4137.56410236;4208.58974352;4205.12820506
4204.99999993;4201.66666660;4106.79487152;4207.94871788;4960.51282205;2036.02563637;229.99999153;-0.00000896;4469.87179536;4595.89743667;4168.97435884;4304.48717963;4106.28205101;4137.82051262;4207.17948711;4205.12820506
4205.12820506;4202.30769224;4170.38461525;4207.94871788;4733.71794976;2036.15384150;229.99999153;-0.00000896;4469.87179536;4568.46153916;4172.82051269;4306.41025655;4140.38461518;4138.33333313;4207.43589737;4205.12820506
4205.89743583;4201.28205122;4107.30769203;4207.94871788;4929.10256557;2009.10255938;8273.20513676;-0.00000896;4469.74359023;4566.28205198;4074.61538427;4302.56410271;4076.15384581;4139.61538441;4207.05128199;4205.12820506
4206.66666660;4201.28205122;4071.28205094;4206.41025634;5152.94871990;2036.92307227;99.48717074;-0.00000896;4470.64102613;4569.87179557;4041.28205087;4306.41025655;4044.35897395;4138.07692287;4207.43589737;4205.12820506
4205.89743583;4201.92307686;4042.82051241;4208.97435891;4961.28205281;2007.94871323;229.99999153;-0.00000896;4471.28205177;4597.05128282;4006.79487131;4304.10256425;4070.51282017;4137.17948697;4205.51282045;4205.12820506
4205.25641019;4202.30769224;4136.02564082;4207.69230763;4925.64102710;2009.99999528;99.48717074;-0.00000896;4496.66666723;4596.02564179;4140.38461518;4303.84615399;4139.61538441;4137.94871774;4207.82051275;4205.12820506
4205.89743583;4201.66666660;4108.97435870;4208.33333327;4697.43589841;2009.48717477;229.99999153;-0.00000896;4470.12820562;4566.41025711;4136.79487159;4304.23076937;4174.23076910;4137.05128185;4207.56410250;4205.12820506
4205.12820506;4201.41025634;4138.46153826;4208.33333327;4960.00000153;2036.28204663;99.48717074;-0.00000896;4496.66666723;4566.53846224;4071.15384581;4305.12820527;4010.25640977;4136.92307672;4207.69230763;4205.12820506
4204.48717942;4202.17948711;4076.53846119;4209.10256404;4957.94871948;2038.20512355;229.99999153;-0.00000896;4471.15384664;4566.15384685;4042.69230728;4303.97435912;4072.69230735;4138.84615364;4208.71794865;4205.12820506
4204.23076917;4202.43589737;4073.58974325;4208.20512814;4765.00000112;2035.38461073;99.48717074;-0.00000896;4496.92307748;4568.71794942;4040.38461497;4304.74358989;4010.89743541;4135.76923056;4207.82051275;4205.12820506
4205.51282045;4202.43589737;4174.10256397;4208.07692301;5059.23077097;2035.64102099;229.99999153;-0.00000896;4471.28205177;4565.12820583;4138.07692287;4305.12820527;4107.05128178;4137.82051262;4207.56410250;4205.12820506
4204.48717942;4202.69230763;4110.25640998;4209.10256404;4956.41025794;2009.48717477;99.48717074;-0.00000896;4471.15384664;4569.74359044;4106.66666639;4304.23076937;4107.94871767;4137.30769210;4207.82051275;4205.12820506
4205.12820506;4175.64102551;4072.94871761;4234.23076923;4891.92307832;2006.15384143;229.99999153;-0.00000896;4497.05128261;4565.00000070;4076.92307658;4305.38461553;4075.89743555;4136.92307672;4207.94871788;4205.12820506
4204.74358968;4176.15384602;4110.25640998;4234.74358975;4931.15384762;2035.25640560;99.48717074;-0.00000896;4471.02564152;4562.05128275;4075.64102530;4303.97435912;4071.41025607;4137.43589723;4207.43589737;4205.12820506
4203.97435891;4175.76923063;4076.15384581;4235.25641026;4760.00000112;2038.20512355;229.99999153;-0.00000896;4469.10256459;4567.30769301;4044.61538420;4301.53846168;4103.58974332;4136.41025621;4233.84615385;4205.12820506
4203.97435891;4202.17948711;4172.94871781;4235.00000000;5120.89743778;2036.28204663;99.48717074;-0.00000896;4469.74359023;4566.28205198;4138.97435877;4306.28205142;4103.46153819;4137.05128185;4205.64102558;4205.12820506
4204.74358968;4202.43589737;4110.51282024;4208.97435891;4892.69230909;2037.69230304;229.99999153;-0.00000896;4467.94871844;4567.94871865;4043.07692266;4306.53846168;4106.28205101;4136.53846133;4207.30769224;4205.12820506
4204.35897429;4202.30769224;4103.07692280;4234.74358975;5089.23077104;2035.51281586;99.48717074;-0.00000896;4468.33333382;4562.94871865;4008.58974311;4302.82051296;4042.05128164;4136.02564082;4233.84615385;4205.12820506
4204.99999993;4201.66666660;4103.46153819;4234.48717949;5090.76923258;2009.99999528;229.99999153;-0.00000896;4467.05128254;4566.53846224;4039.23076882;4305.12820527;4072.56410222;4136.41025621;4207.82051275;4205.12820506
4204.48717942;4201.66666660;4173.84615371;4234.48717949;4890.76923216;2035.38461073;99.48717074;-0.00000896;4468.33333382;4567.05128275;4140.25641005;4304.10256425;4142.05128185;4136.53846133;4206.79487173;4205.12820506
4204.35897429;4201.66666660;4170.25641012;4234.23076923;4730.64102669;2035.25640560;229.99999153;-0.00000896;4466.79487229;4568.84615454;4169.87179474;4303.46153860;4208.58974352;4137.30769210;4207.43589737;4205.12820506
4205.89743583;4201.79487173;4109.23076896;4208.46153840;5056.79487354;2038.97435432;99.48717074;-0.00000896;4469.10256459;4566.53846224;4106.15384588;4305.89743604;4072.94871761;4136.53846133;4207.30769224;4205.12820506
4206.41025634;4201.92307686;4070.76923043;4206.66666660;4727.56410361;2037.05127740;229.99999153;-0.00000896;4470.00000049;4563.97435967;4043.58974318;4305.89743604;4070.76923043;4138.07692287;4207.69230763;4205.12820506
4206.02564096;4202.05128199;4042.56410215;4207.30769224;4957.43589897;2035.64102099;99.48717074;-0.00000896;4471.53846203;4565.51282121;4042.82051241;4306.41025655;4037.56410215;4136.41025621;4207.43589737;4205.12820506
4206.28205122;4175.89743576;4203.07692301;4207.43589737;4829.23077049;2009.35896964;229.99999153;-0.00000896;4471.41025690;4564.23076993;4138.58974339;4303.84615399;4108.07692280;4136.66666646;4207.30769224;4205.12820506
4205.64102558;4203.07692301;4109.35897408;4207.17948711;5225.12820722;2009.74358502;99.48717074;-0.00000896;4497.94871851;4565.12820583;4071.66666632;4305.51282066;4074.23076889;4137.30769210;4207.56410250;4205.12820506
4206.02564096;4201.41025634;4040.64102523;4208.07692301;4962.17948871;2009.87179015;229.99999153;-0.00000896;4498.20512876;4566.02564172;4070.51282017;4301.79487194;4107.69230742;4110.12820485;4206.41025634;4205.12820506
4204.74358968;4203.97435891;4041.92307651;4207.56410250;4862.69230902;2035.25640560;99.48717074;-0.00000896;4498.46153902;4568.58974429;4007.69230721;4301.28205142;4039.74358933;4136.41025621;4207.43589737;4205.12820506
4203.71794865;4203.07692301;4043.84615343;4208.46153840;4831.53846279;2009.35896964;229.99999153;-0.00000896;4471.66666716;4595.25641102;4007.94871747;4305.76923091;4074.61538427;4136.02564082;4206.15384609;4205.12820506
4204.99999993;4202.43589737;4176.15384602;4206.66666660;4990.76923237;2036.66666201;99.48717074;-0.00000896;4497.56410312;4568.84615454;4073.71794837;4307.30769245;4042.69230728;4138.07692287;4208.07692301;4205.12820506
4203.97435891;4203.33333327;4070.64102530;4207.56410250;5061.41025815;2010.12820041;229.99999153;-0.00000896;4497.05128261;4569.61538531;4006.28205080;4304.61538476;4071.92307658;4137.05128185;4206.92307686;4205.12820506
4204.61538455;4202.05128199;4039.87179446;4208.84615378;4795.64102683;2035.38461073;138.71794004;-0.00000896;4471.53846203;4565.38461608;4036.92307651;4302.69230784;4102.56410229;4135.89743569;4207.69230763;4205.12820506
4204.61538455;4202.05128199;4103.58974332;4208.20512814;4863.84615517;2035.64102099;8275.25641881;-0.00000896;4497.43589800;4595.76923154;4009.61538413;4303.71794886;4011.53846106;4136.79487159;4207.17948711;4205.12820506
4205.64102558;4203.33333327;4135.89743569;4208.07692301;4990.12820673;2036.28204663;8306.53847016;-0.00000896;4498.84615441;4596.15384692;4042.43589702;4305.38461553;4107.56410229;4136.92307672;4207.56410250;4205.12820506
4206.53846147;4201.92307686;4171.28205115;4234.10256411;4831.53846279;2008.97435425;229.99999153;-0.00000896;4498.71794928;4566.53846224;4138.33333313;4303.71794886;4103.20512793;4136.41025621;4207.56410250;4205.12820506
4206.02564096;4201.79487173;4110.51282024;4209.10256404;4988.97436058;2034.87179022;229.99999153;-0.00000896;4498.33333389;4598.71794949;4011.66666618;4305.25641040;4069.87179453;4137.30769210;4207.69230763;4205.12820506
4205.64102558;4202.05128199;4102.56410229;4234.74358975;4827.30769356;2038.84614919;229.99999153;-0.00000896;4498.97435953;4567.30769301;4008.20512772;4302.69230784;4044.48717907;4110.51282024;4207.30769224;4205.12820506
4205.64102558;4176.15384602;4110.51282024;4234.87179488;4897.69230909;2036.53845689;229.99999153;-0.00000896;4500.76923133;4562.43589813;4039.10256369;4304.87179501;4043.71794830;4137.17948697;4207.82051275;4205.12820506
4204.48717942;4201.79487173;4202.82051275;4234.10256411;4963.58974512;2009.61537989;-0.00000896;-0.00000896;4498.58974415;4566.02564172;4107.17948691;4304.23076937;4109.10256383;4135.51282031;4207.82051275;4205.12820506
4203.97435891;4202.17948711;4175.51282038;4235.00000000;5022.43589911;2035.64102099;-0.00000896;-0.00000896;4500.64102620;4565.89743660;4103.46153819;4306.92307707;4140.89743569;4137.05128185;4206.28205122;4205.12820506
4203.71794865;4201.02564096;4077.82051248;4233.97435898;4893.20512960;2036.79486714;-0.00000896;-0.00000896;4500.12820569;4562.82051352;4071.53846119;4307.43589758;4136.02564082;4137.69230749;4207.69230763;4205.12820506
4202.82051275;4201.66666660;4202.94871788;4235.38461539;4956.15384769;2036.53845689;-0.00000896;-0.00000896;4499.74359030;4564.48718019;4136.41025621;4305.38461553;4106.41025614;4137.30769210;4207.69230763;4205.12820506
4202.56410250;4201.79487173;4136.92307672;4234.74358975;5185.76923279;2035.12820048;-0.00000896;-0.00000896;4499.10256466;4568.46153916;4044.74358933;4305.00000014;4135.76923056;4137.69230749;4207.30769224;4205.12820506
4201.41025634;4201.28205122;4136.02564082;4234.61538462;4956.53846307;2038.33332868;-0.00000896;-0.00000896;4498.97435953;4566.66666737;4044.10256369;4334.87179508;4103.20512793;4109.48717921;4207.56410250;4205.12820506
4202.43589737;4201.53846147;4104.87179460;4234.35897436;4892.30769370;2035.76922612;-0.00000896;-0.00000896;4497.94871851;4565.38461608;4006.92307644;4306.28205142;4072.17948684;4136.41025621;4209.10256404;4205.12820506
4202.82051275;4201.79487173;4077.43589709;4233.84615385;4898.20512960;2035.12820048;-0.00000896;-0.00000896;4497.56410312;4537.17948781;4012.05128157;4302.43589758;4104.35897408;4137.17948697;4207.43589737;4205.12820506
4203.20512814;4202.69230763;4209.10256404;4234.87179488;5027.94871962;2035.76922612;-0.00000896;-0.00000896;4471.02564152;4564.87179557;4143.20512800;4303.84615399;4138.20512800;4139.10256390;4206.28205122;4205.12820506
4202.94871788;4202.82051275;4141.02564082;4235.76923077;5055.76923251;2037.17948253;-0.00000896;-0.00000896;4471.41025690;4595.64102641;4077.82051248;4333.71794893;4142.56410236;4110.64102537;4207.82051275;4205.12820506
4204.48717942;4203.71794865;4141.15384595;4235.76923077;4991.92307853;2037.43589278;-0.00000896;-0.00000896;4497.17948774;4597.69230846;4044.99999959;4305.00000014;4140.89743569;4110.64102537;4207.43589737;4205.12820506
4206.15384609;4202.82051275;4202.82051275;4236.41025641;4894.35897575;2038.84614919;-0.00000896;-0.00000896;4469.87179536;4568.07692378;4009.23076875;4305.89743604;4138.33333313;4136.15384595;4207.30769224;4205.12820506
4205.76923070;4204.23076917;4174.87179474;4235.76923077;4895.25641165;2039.35896971;-0.00000896;-0.00000896;4468.97435946;4568.84615454;4012.05128157;4305.12820527;4169.74358961;4136.79487159;4207.17948711;4205.12820506
4206.66666660;4202.05128199;4271.28205136;4235.76923077;4927.17948864;2038.58973894;-0.00000896;-0.00000896;4470.76923126;4568.58974429;4136.66666646;4303.33333348;4236.53846154;4137.43589723;4207.56410250;4205.12820506
4206.53846147;4202.94871788;4208.71794865;4237.05128206;4860.51282184;2036.92307227;-0.00000896;-0.00000896;4470.51282100;4568.07692378;4137.17948697;4305.51282066;4201.15384609;4137.69230749;4207.69230763;4205.12820506
4207.17948711;4202.69230763;4137.43589723;4235.64102564;4891.79487319;2039.35896971;-0.00000896;-0.00000896;4469.74359023;4565.25641096;4072.30769196;4302.43589758;4201.66666660;4136.41025621;4207.56410250;4205.12820506
4207.69230763;4201.66666660;4142.17948697;4237.05128206;4832.30769356;2037.05127740;-0.00000896;-0.00000896;4469.48717998;4594.87179564;4105.25640998;4304.23076937;4143.33333313;4136.79487159;4208.33333327;4205.12820506
4207.82051275;4201.66666660;4209.10256404;4236.92307693;4859.10256543;2037.82050817;-0.00000896;-0.00000896;4469.87179536;4570.12820583;4136.92307672;4306.53846168;4241.28205129;4137.05128185;4206.41025634;4205.12820506
4206.15384609;4202.05128199;4208.33333327;4235.89743590;4733.46153951;2037.30768766;-0.00000896;-0.00000896;4468.46153895;4567.56410326;4140.89743569;4305.12820527;4268.20512828;4138.07692287;4207.69230763;4205.12820506
4206.02564096;4202.05128199;4270.00000007;4235.89743590;4991.02564263;2008.20512348;-0.00000896;-0.00000896;4470.00000049;4566.66666737;4073.46153812;4302.82051296;4169.10256397;4139.10256390;4206.02564096;4205.12820506
4204.74358968;4201.28205122;4169.35897422;4233.97435898;4961.66666820;2006.53845682;-0.00000896;-0.00000896;4470.25641075;4569.10256480;4011.79487131;4302.69230784;4136.02564082;4138.07692287;4207.94871788;4205.12820506
4205.38461532;4201.53846147;4175.38461525;4208.71794865;5157.82051477;2007.56409784;-0.00000896;-0.00000896;4471.02564152;4569.87179557;4103.97435870;4305.25641040;4172.05128192;4136.79487159;4205.12820506;4205.12820506
4204.10256404;4175.64102551;4237.43589744;4207.94871788;4860.51282184;2008.71794400;-0.00000896;-0.00000896;4496.41025697;4568.97435967;4206.92307686;4306.41025655;4299.48717963;4137.56410236;4207.94871788;4205.12820506
4203.84615378;4174.74358961;4236.41025641;4206.66666660;4797.43589862;2007.43589271;-0.00000896;-0.00000896;4496.41025697;4563.33333403;4139.48717928;4305.00000014;4175.64102551;4137.17948697;4207.17948711;4205.12820506
4202.82051275;4175.89743576;4143.46153826;4207.43589737;4923.20512967;2008.71794400;-0.00000896;-0.00000896;4498.33333389;4563.97435967;4071.15384581;4305.51282066;4239.48717949;4135.76923056;4207.43589737;4205.12820506
4203.20512814;4201.02564096;4208.58974352;4208.97435891;4895.51282191;2036.66666201;229.99999153;-0.00000896;4498.97435953;4565.64102634;4075.38461504;4304.48717963;4174.74358961;4136.79487159;4207.30769224;4205.12820506
4203.46153840;4201.53846147;4202.43589737;4208.07692301;4733.71794976;2039.61537996;229.99999153;-0.00000896;4497.56410312;4536.53846217;4044.23076882;4306.79487194;4207.30769224;4138.20512800;4207.43589737;4205.12820506
4201.41025634;4201.41025634;4306.53846168;4233.97435898;4927.82051428;2036.41025176;229.99999153;-0.00000896;4497.94871851;4564.87179557;4142.05128185;4305.25641040;4208.20512814;4136.28205108;4207.43589737;4205.12820506
4203.46153840;4202.05128199;4234.35897436;4208.07692301;4861.53846286;2036.66666201;229.99999153;-0.00000896;4498.97435953;4595.12820590;4106.41025614;4303.20512835;4234.23076923;4135.89743569;4208.33333327;4205.12820506
4204.48717942;4201.53846147;4170.64102551;4208.20512814;5190.76923279;2041.15384150;8241.66667515;-0.00000896;4497.17948774;4565.89743660;4070.25640991;4333.33333355;4141.41025621;4138.33333313;4207.43589737;4205.12820506
4204.23076917;4201.53846147;4173.97435884;4209.10256404;4930.25641172;2038.58973894;102.30768356;-0.00000896;4497.30769287;4562.17948788;4076.66666632;4303.46153860;4137.30769210;4136.02564082;4208.20512814;4205.12820506
4204.74358968;4201.79487173;4205.64102558;4208.58974352;4959.35897589;2037.17948253;229.99999153;-0.00000896;4496.79487235;4562.05128275;4106.53846126;4303.71794886;4140.12820492;4136.66666646;4207.30769224;4205.12820506
4204.23076917;4201.41025634;4239.23076923;4235.12820513;4926.66666813;2038.97435432;102.30768356;-0.00000896;4497.56410312;4570.00000070;4169.23076910;4305.51282066;4172.43589730;4138.07692287;4234.74358975;4205.12820506
4205.25641019;4202.17948711;4175.12820499;4234.23076923;5027.56410424;2039.74358509;229.99999153;-0.00000896;4497.17948774;4596.15384692;4103.97435870;4306.53846168;4175.89743576;4136.66666646;4208.07692301;4205.12820506
4204.74358968;4202.82051275;4201.79487173;4209.10256404;4730.89743694;2009.35896964;102.30768356;-0.00000896;4499.61538518;4565.38461608;4107.05128178;4303.33333348;4138.58974339;4136.79487159;4207.43589737;4205.12820506
4205.25641019;4203.20512814;4170.76923063;4241.28205129;4924.61538608;2034.87179022;229.99999153;-0.00000896;4499.35897492;4565.38461608;4074.23076889;4305.76923091;4142.56410236;4137.17948697;4207.69230763;4205.12820506
4204.61538455;4202.05128199;4234.61538462;4234.48717949;4700.76923175;2008.46153374;102.30768356;-0.00000896;4499.23076979;4568.71794942;4170.25641012;4304.74358989;4236.41025641;4135.64102544;4207.30769224;4205.12820506
4204.61538455;4202.43589737;4272.56410264;4208.07692301;4928.46153992;2008.97435425;229.99999153;-0.00000896;4498.84615441;4567.30769301;4173.71794858;4304.23076937;4235.89743590;4137.05128185;4207.56410250;4205.12820506
4206.15384609;4202.43589737;4202.82051275;4207.82051275;4825.38461664;2005.51281579;102.30768356;-0.00000896;4498.71794928;4596.79487256;4143.46153826;4303.84615399;4202.30769224;4137.05128185;4207.69230763;4205.12820506
4203.97435891;4202.56410250;4202.17948711;4208.20512814;4925.12820659;2005.64102092;229.99999153;-0.00000896;4500.76923133;4596.66666743;4136.41025621;4305.89743604;4139.99999980;4137.05128185;4205.89743583;4205.12820506
4205.12820506;4201.41025634;4172.05128192;4207.82051275;4832.30769356;2009.61537989;102.30768356;-0.00000896;4498.46153902;4569.35897506;4107.30769203;4305.89743604;4140.76923056;4137.56410236;4207.69230763;4205.12820506
4204.74358968;4202.17948711;4305.12820527;4209.10256404;4892.05128344;2038.33332868;229.99999153;-0.00000896;4497.30769287;4565.12820583;4239.48717949;4303.58974373;4234.61538462;4135.51282031;4209.10256404;4205.12820506
4205.64102558;4201.79487173;4270.76923084;4207.94871788;4894.35897575;2037.82050817;102.30768356;-0.00000896;4498.71794928;4569.23076993;4143.07692287;4306.41025655;4240.38461539;4136.79487159;4207.69230763;4205.12820506
4205.76923070;4201.92307686;4240.38461539;4234.10256411;5120.00000188;2009.48717477;229.99999153;-0.00000896;4501.15384671;4568.46153916;4105.38461511;4305.76923091;4110.12820485;4138.46153826;4207.30769224;4205.12820506
4204.74358968;4203.07692301;4175.64102551;4234.48717949;5024.61538629;2036.92307227;102.30768356;-0.00000896;4499.35897492;4569.35897506;4110.25640998;4303.58974373;4173.97435884;4137.43589723;4207.17948711;4205.12820506
4204.10256404;4176.02564089;4266.92307700;4235.00000000;4928.58974505;2036.28204663;229.99999153;-0.00000896;4499.74359030;4567.82051352;4170.12820499;4303.20512835;4201.53846147;4136.53846133;4208.71794865;4205.12820506
4204.99999993;4175.51282038;4303.71794886;4234.87179488;4863.07692440;2037.30768766;102.30768356;-0.00000896;4498.46153902;4568.07692378;4238.97435898;4303.97435912;4270.00000007;4137.56410236;4207.56410250;4205.12820506
4203.46153840;4201.15384609;4273.33333341;4235.76923077;4924.74359121;2037.30768766;229.99999153;-0.00000896;4498.33333389;4568.58974429;4142.56410236;4305.25641040;4267.05128212;4138.33333313;4205.12820506;4205.12820506
4204.35897429;4175.76923063;4204.99999993;4234.35897436;4892.30769370;2039.87179022;102.30768356;-0.00000896;4497.05128261;4567.17948788;4075.12820478;4306.53846168;4174.99999986;4137.30769210;4207.30769224;4205.12820506
4203.97435891;4175.38461525;4236.79487180;4235.12820513;4996.41025801;2036.92307227;229.99999153;-0.00000896;4500.12820569;4568.33333403;4104.87179460;4304.87179501;4201.41025634;4136.79487159;4207.56410250;4205.12820506
4204.23076917;4201.15384609;4306.53846168;4233.97435898;4857.94871927;2007.82050810;102.30768356;-0.00000896;4498.33333389;4566.15384685;4142.05128185;4304.10256425;4205.76923070;4137.56410236;4207.30769224;4205.12820506
4203.58974352;4174.74358961;4271.15384623;4208.97435891;4727.05128310;2009.74358502;229.99999153;-0.00000896;4500.25641082;4564.48718019;4235.64102564;4304.74358989;4241.92307693;4138.58974339;4207.43589737;4205.12820506
4202.43589737;4175.38461525;4236.92307693;4234.87179488;5120.51282239;2008.97435425;102.30768356;-0.00000896;4500.51282107;4564.74359044;4168.20512807;4304.48717963;4172.17948704;4136.53846133;4206.15384609;4205.12820506
4203.07692301;4174.87179474;4208.46153840;4208.33333327;4989.87179647;2035.76922612;229.99999153;-0.00000896;4500.89743646;4568.07692378;4077.05128171;4305.38461553;4173.84615371;4136.92307672;4207.30769224;4205.12820506
4201.66666660;4201.02564096;4268.84615392;4234.48717949;4863.46153979;2036.02563637;102.30768356;-0.00000896;4499.74359030;4566.41025711;4136.79487159;4305.64102578;4301.41025655;4137.43589723;4207.17948711;4205.12820506
4201.28205122;4175.64102551;4404.23076958;4233.97435898;5087.94871976;2037.56409791;229.99999153;-0.00000896;4498.97435953;4536.15384678;4174.99999986;4304.23076937;4271.28205136;4139.23076903;4207.56410250;4205.12820506
4202.94871788;4176.28205115;4299.48717963;4209.10256404;4700.89743687;2009.48717477;102.30768356;-0.00000896;4499.74359030;4533.33333396;4140.38461518;4305.89743604;4270.76923084;4136.15384595;4207.56410250;4205.12820506
4203.33333327;4201.66666660;4206.28205122;4233.97435898;5059.61538636;2037.30768766;229.99999153;-0.00000896;4499.87179543;4567.82051352;4142.56410236;4305.76923091;4173.71794858;4135.38461518;4207.17948711;4205.12820506
4202.30769224;4201.66666660;4206.41025634;4234.48717949;5021.53846321;2036.53845689;136.41024773;-0.00000896;4499.10256466;4565.00000070;4110.51282024;4304.35897450;4138.71794851;4138.07692287;4207.56410250;4205.12820506
4203.84615378;4202.30769224;4234.87179488;4208.84615378;4958.71795025;2038.20512355;8373.84616261;-0.00000896;4497.94871851;4567.17948788;4138.97435877;4304.48717963;4206.15384609;4136.02564082;4207.05128199;4205.12820506
4202.69230763;4202.56410250;4367.43589772;4234.87179488;4898.33333473;2039.61537996;164.74358113;-0.00000896;4498.71794928;4564.23076993;4173.58974345;4307.05128219;4239.74358975;4138.07692287;4207.43589737;4205.12820506
4204.87179481;4202.05128199;4366.66666695;4233.97435898;4831.79487305;2009.99999528;229.99999153;-0.00000896;4497.82051338;4565.64102634;4135.76923056;4303.71794886;4305.12820527;4136.28205108;4207.17948711;4205.12820506
4206.92307686;4201.66666660;4273.84615392;4208.84615378;4956.41025794;2036.53845689;-0.00000896;-0.00000896;4499.48718005;4566.92307762;4201.15384609;4304.23076937;4208.07692301;4137.82051262;4206.79487173;4205.12820506
4205.51282045;4201.28205122;4175.12820499;4234.10256411;4732.05128310;2009.74358502;-0.00000896;-0.00000896;4500.51282107;4567.69230839;4077.05128171;4302.43589758;4207.05128199;4137.05128185;4207.82051275;4205.12820506
4204.87179481;4201.15384609;4268.71794879;4234.61538462;4891.66666806;2035.76922612;-0.00000896;-0.00000896;4502.69230825;4537.05128268;4105.64102537;4305.38461553;4205.12820506;4137.94871774;4206.92307686;4205.12820506
4203.97435891;4201.28205122;4335.89743611;4234.23076923;4796.28205247;2005.89743118;-0.00000896;-0.00000896;4502.17948774;4562.82051352;4235.51282052;4306.15384630;4209.10256404;4135.64102544;4208.71794865;4205.12820506
4202.69230763;4176.02564089;4303.84615399;4234.74358975;5286.28205351;2037.43589278;-0.00000896;-0.00000896;4501.15384671;4568.33333403;4176.15384602;4305.38461553;4241.15384616;4110.51282024;4207.05128199;4205.12820506
4201.79487173;4175.76923063;4273.84615392;4236.53846154;4798.07692426;2010.12820041;-0.00000896;-0.00000896;4500.25641082;4536.79487242;4141.02564082;4303.84615399;4173.46153833;4139.99999980;4208.71794865;4205.12820506
4202.82051275;4201.15384609;4208.84615378;4234.87179488;4896.28205268;2036.92307227;-0.00000896;-0.00000896;4498.33333389;4562.56410326;4107.82051255;4303.71794886;4137.94871774;4137.82051262;4207.05128199;4205.12820506
4202.94871788;4175.89743576;4206.66666660;4235.12820513;4824.87179613;2035.64102099;-0.00000896;-0.00000896;4497.30769287;4563.07692378;4107.56410229;4304.23076937;4175.64102551;4136.79487159;4206.79487173;4205.12820506
4201.92307686;4201.28205122;4334.74358996;4236.41025641;4894.61538601;2036.92307227;-0.00000896;-0.00000896;4470.89743639;4563.46153916;4239.23076923;4302.56410271;4299.61538476;4110.38461511;4206.15384609;4205.12820506
4202.05128199;4176.02564089;4269.74358982;4235.12820513;5122.69230957;2039.87179022;-0.00000896;-0.00000896;4469.74359023;4564.74359044;4138.33333313;4306.28205142;4203.07692301;4136.92307672;4207.43589737;4205.12820506
4203.46153840;4201.92307686;4206.41025634;4234.48717949;4960.38461692;2036.53845689;-0.00000896;-0.00000896;4468.20512870;4564.48718019;4143.46153826;4304.10256425;4172.05128192;4138.33333313;4207.05128199;4205.12820506
4205.12820506;4201.66666660;4207.94871788;4208.07692301;4992.05128365;2036.28204663;-0.00000896;-0.00000896;4470.64102613;4567.30769301;4141.53846133;4302.82051296;4143.46153826;4136.92307672;4207.30769224;4205.12820506
4206.02564096;4201.53846147;4174.48717935;4208.46153840;4862.30769363;2035.12820048;-0.00000896;-0.00000896;4497.05128261;4568.07692378;4170.64102551;4332.94871816;4170.89743576;4137.30769210;4207.30769224;4205.12820506
4205.76923070;4201.28205122;4302.94871809;4208.97435891;4995.64102724;2037.56409791;-0.00000896;-0.00000896;4497.82051338;4567.05128275;4207.17948711;4305.38461553;4206.41025634;4137.56410236;4207.43589737;4205.12820506
4206.66666660;4201.66666660;4301.66666681;4206.66666660;4858.46153979;2036.41025176;-0.00000896;-0.00000896;4500.25641082;4565.64102634;4137.30769210;4300.76923091;4234.35897436;4138.07692287;4207.56410250;4205.12820506
4206.15384609;4201.02564096;4236.92307693;4206.92307686;4931.02564249;2035.25640560;-0.00000896;-0.00000896;4502.43589800;4537.30769294;4070.76923043;4304.23076937;4171.53846140;4136.41025621;4206.66666660;4205.12820506
4204.48717942;4176.15384602;4142.30769210;4208.20512814;5023.33333500;2038.33332868;-0.00000896;-0.00000896;4503.84615441;4535.64102627;4107.82051255;4305.64102578;4168.71794858;4138.20512800;4207.30769224;4205.12820506
4203.84615378;4201.28205122;4300.64102578;4207.05128199;4858.07692440;2035.89743125;-0.00000896;-0.00000896;4503.71794928;4564.10256480;4235.51282052;4305.76923091;4176.28205115;4137.05128185;4206.92307686;4205.12820506
4204.10256404;4201.79487173;4334.61538483;4207.17948711;4830.00000125;2037.43589278;-0.00000896;-0.00000896;4503.97435953;4564.74359044;4274.35897443;4300.89743604;4268.58974366;4137.17948697;4208.84615378;4205.12820506
4203.58974352;4201.92307686;4306.79487194;4207.69230763;4895.51282191;2007.05127733;-0.00000896;-0.00000896;4531.79487242;4564.23076993;4202.69230763;4305.12820527;4203.07692301;4136.15384595;4207.43589737;4205.12820506
4203.84615378;4201.66666660;4336.66666688;4208.20512814;5057.56410431;2034.87179022;-0.00000896;-0.00000896;4530.89743653;4566.92307762;4172.69230756;4302.17948732;4176.02564089;4109.35897408;4207.43589737;4205.12820506
4202.82051275;4176.02564089;4304.23076937;4209.10256404;4963.58974512;2007.94871323;-0.00000896;-0.00000896;4530.12820576;4566.92307762;4172.05128192;4306.92307707;4201.53846147;4137.17948697;4208.84615378;4205.12820506
4203.20512814;4201.28205122;4467.30769280;4208.97435891;4927.30769377;2035.51281586;-0.00000896;-0.00000896;4504.10256466;4567.69230839;4301.02564117;4303.33333348;4267.56410264;4136.02564082;4207.17948711;4205.12820506
4202.82051275;4201.79487173;4373.20512849;4235.64102564;4795.12820631;2037.05127740;229.99999153;-0.00000896;4503.71794928;4565.38461608;4306.28205142;4304.74358989;4271.92307700;4136.53846133;4207.43589737;4205.12820506
4204.48717942;4201.15384609;4333.58974380;4235.38461539;4957.43589897;2009.23076451;106.28204253;-0.00000896;4503.46153902;4563.46153916;4204.61538455;4305.51282066;4235.25641026;4135.64102544;4207.17948711;4205.12820506
4204.35897429;4201.92307686;4273.07692315;4235.64102564;4996.53846314;2008.84614912;2.82050386;-0.00000896;4504.48718005;4564.23076993;4206.79487173;4305.00000014;4172.43589730;4136.02564082;4204.87179481;4205.12820506
4203.84615378;4201.79487173;4333.71794893;4237.05128206;4727.43589848;2036.41025176;137.69229901;-0.00000896;4503.33333389;4565.25641096;4208.46153840;4305.12820527;4240.25641026;4137.43589723;4207.30769224;4205.12820506
4204.23076917;4176.02564089;4465.89743639;4237.30769231;4898.07692447;2037.69230304;229.99999153;-0.00000896;4502.30769287;4563.58974429;4306.15384630;4304.35897450;4302.30769245;4136.41025621;4207.30769224;4205.12820506
4204.10256404;4201.15384609;4339.87179508;4236.41025641;4928.58974505;2037.43589278;229.99999153;-0.00000896;4501.15384671;4565.64102634;4238.46153847;4305.38461553;4269.74358982;4136.92307672;4207.30769224;4205.12820506
4204.61538455;4202.05128199;4268.97435905;4237.56410257;5055.38461713;2039.10255945;229.99999153;-0.00000896;4501.28205184;4562.30769301;4206.53846147;4332.82051303;4201.28205122;4135.76923056;4207.17948711;4205.12820506
4205.76923070;4175.89743576;4366.66666695;4237.69230770;5025.38461706;2039.10255945;229.99999153;-0.00000896;4501.41025697;4535.00000063;4237.94871795;4307.17948732;4203.20512814;4110.12820485;4207.30769224;4205.12820506
4204.87179481;4175.89743576;4268.71794879;4236.28205129;4857.56410389;2034.99999535;229.99999153;-0.00000896;4501.53846210;4563.46153916;4239.35897436;4303.71794886;4208.97435891;4136.66666646;4207.56410250;4205.12820506
4203.46153840;4201.15384609;4371.28205156;4237.69230770;5157.82051477;2038.33332868;229.99999153;-0.00000896;4499.48718005;4563.33333403;4304.87179501;4306.15384630;4268.71794879;4138.07692287;4208.33333327;4205.12820506
4203.71794865;4175.64102551;4301.53846168;4236.15384616;4926.41025787;2037.69230304;229.99999153;-0.00000896;4497.17948774;4534.48718012;4204.48717942;4306.02564117;4205.38461532;4136.92307672;4207.17948711;4205.12820506
4203.84615378;4201.66666660;4370.38461567;4236.92307693;4961.66666820;2037.69230304;229.99999153;-0.00000896;4497.82051338;4533.07692371;4205.38461532;4304.61538476;4207.56410250;4136.53846133;4209.10256404;4205.12820506
4203.20512814;4201.53846147;4306.53846168;4235.76923077;4895.89743729;2036.28204663;229.99999153;-0.00000896;4471.41025690;4567.30769301;4203.97435891;4305.12820527;4175.12820499;4109.99999973;4206.79487173;4205.12820506
4204.10256404;4201.92307686;4401.02564138;4234.23076923;4892.43589883;2035.64102099;229.99999153;-0.00000896;4497.05128261;4563.33333403;4235.51282052;4305.76923091;4174.87179474;4137.56410236;4240.12820513;4205.12820506
4204.74358968;4202.69230763;4338.07692329;4234.48717949;5120.25641214;2038.71794407;229.99999153;-0.00000896;4471.66666716;4534.23076986;4240.89743590;4306.79487194;4206.79487173;4136.53846133;4207.17948711;4205.12820506
4204.61538455;4202.17948711;4237.30769231;4201.79487173;4860.51282184;2007.94871323;229.99999153;-0.00000896;4497.30769287;4562.17948788;4172.56410243;4305.89743604;4201.66666660;4137.30769210;4207.56410250;4205.12820506
4205.89743583;4176.15384602;4334.87179508;4209.10256404;4957.56410410;2035.38461073;229.99999153;-0.00000896;4497.69230825;4562.94871865;4170.89743576;4306.15384630;4204.61538455;4137.17948697;4207.17948711;4205.12820506
4207.56410250;4176.28205115;4267.43589751;4234.23076923;4830.76923202;2038.46153381;229.99999153;-0.00000896;4499.87179543;4536.02564165;4175.76923063;4303.07692322;4239.48717949;4137.30769210;4205.25641019;4205.12820506
4206.41025634;4201.15384609;4401.02564138;4208.84615378;5126.53846342;2037.17948253;229.99999153;-0.00000896;4499.74359030;4533.71794935;4299.48717963;4306.92307707;4239.87179488;4137.30769210;4208.33333327;4205.12820506
4206.15384609;4201.79487173;4336.02564124;4208.97435891;4830.51282177;2034.87179022;229.99999153;-0.00000896;4502.56410312;4562.43589813;4204.61538455;4306.15384630;4237.56410257;4136.41025621;4207.30769224;4205.12820506
4205.12820506;4202.05128199;4269.87179495;4208.71794865;5028.46154013;2008.33332861;229.99999153;-0.00000896;4501.92307748;4565.25641096;4138.97435877;4306.92307707;4208.20512814;4137.05128185;4207.82051275;4205.12820506
4204.99999993;4201.53846147;4240.76923077;4208.20512814;4925.12820659;2039.87179022;229.99999153;-0.00000896;4502.69230825;4533.33333396;4108.20512793;4305.25641040;4142.82051262;4137.17948697;4208.20512814;4205.12820506
4203.58974352;4201.28205122;4307.43589758;4234.48717949;4731.66666771;2008.84614912;229.99999153;-0.00000896;4501.02564159;4537.30769294;4143.46153826;4306.79487194;4237.56410257;4136.92307672;4207.17948711;4205.12820506
4204.23076917;4202.30769224;4402.82051317;4208.97435891;5025.64102731;2039.99999535;229.99999153;-0.00000896;4497.94871851;4535.00000063;4271.15384623;4305.38461553;4267.82051289;4137.17948697;4207.05128199;4205.12820506
4204.10256404;4203.33333327;4332.56410278;4234.23076923;5094.61538643;2009.35896964;229.99999153;-0.00000896;4499.74359030;4537.05128268;4202.82051275;4305.25641040;4270.38461546;4135.64102544;4207.30769224;4205.12820506
4204.99999993;4203.07692301;4307.05128219;4208.71794865;4858.46153979;2005.89743118;229.99999153;-0.00000896;4499.74359030;4567.43589813;4110.51282024;4305.00000014;4174.48717935;4137.17948697;4206.92307686;4205.12820506
4205.25641019;4202.17948711;4208.46153840;4207.82051275;4830.38461664;2006.15384143;229.99999153;-0.00000896;4502.05128261;4564.48718019;4139.99999980;4306.66666681;4139.48717928;4137.69230749;4207.56410250;4205.12820506
4204.10256404;4201.02564096;4305.38461553;4208.20512814;4989.23077083;2009.10255938;229.99999153;-0.00000896;4502.43589800;4533.33333396;4206.79487173;4303.71794886;4234.61538462;4137.05128185;4206.92307686;4205.12820506
4203.58974352;4175.25641012;4305.76923091;4234.35897436;4831.79487305;2034.99999535;229.99999153;-0.00000896;4502.05128261;4564.35897506;4238.71794872;4333.33333355;4234.23076923;4136.02564082;4207.43589737;4205.12820506
4203.71794865;4176.28205115;4333.07692329;4208.97435891;4994.23077083;2038.58973894;229.99999153;-0.00000896;4501.28205184;4562.94871865;4172.94871781;4302.94871809;4271.41025648;4137.94871774;4206.15384609;4205.12820506
4203.46153840;4201.79487173;4301.92307707;4208.97435891;4959.23077076;2038.33332868;229.99999153;-0.00000896;4499.74359030;4536.15384678;4174.99999986;4304.87179501;4236.15384616;4136.15384595;4207.05128199;4205.12820506
4204.35897429;4201.15384609;4241.41025641;4208.20512814;4963.84615538;2009.74358502;229.99999153;-0.00000896;4500.76923133;4562.30769301;4136.79487159;4302.43589758;4205.64102558;4137.56410236;4207.17948711;4205.12820506
4204.23076917;4201.53846147;4369.48717977;4208.58974352;4956.79487333;2038.71794407;229.99999153;-0.00000896;4500.00000056;4533.46153909;4240.76923077;4305.25641040;4201.02564096;4135.76923056;4206.92307686;4205.12820506
4203.07692301;4202.82051275;4302.69230784;4208.58974352;5088.07692489;2036.53845689;229.99999153;-0.00000896;4500.00000056;4536.41025704;4169.87179474;4304.87179501;4207.82051275;4138.84615364;4206.66666660;4205.12820506
4204.35897429;4202.94871788;4235.76923077;4208.20512814;4829.23077049;2038.46153381;229.99999153;-0.00000896;4500.38461594;4565.25641096;4142.56410236;4304.61538476;4139.61538441;4136.53846133;4207.05128199;4205.12820506
4205.38461532;4201.53846147;4274.10256418;4208.20512814;5093.58974540;2039.61537996;229.99999153;-0.00000896;4500.51282107;4562.43589813;4107.05128178;4305.64102578;4141.66666646;4135.76923056;4208.71794865;4205.12820506
4206.15384609;4202.43589737;4272.82051289;4208.20512814;4861.53846286;2036.66666201;229.99999153;-0.00000896;4500.76923133;4533.33333396;4109.35897408;4303.71794886;4204.35897429;4137.05128185;4206.92307686;4205.12820506
4206.02564096;4202.94871788;4403.46153881;4207.56410250;5025.12820680;2008.33332861;132.17947850;-0.00000896;4501.66666723;4563.58974429;4273.84615392;4305.00000014;4269.48717956;4138.20512800;4207.05128199;4205.12820506
4206.79487173;4202.56410250;4400.12820548;4206.79487173;5021.66666834;2036.41025176;8241.92308540;-0.00000896;4502.56410312;4564.87179557;4205.64102558;4304.23076937;4299.48717963;4138.07692287;4206.53846147;4205.12820506
4206.92307686;4202.43589737;4300.76923091;4207.30769224;5026.53846321;2009.87179015;229.99999153;-0.00000896;4504.23076979;4535.00000063;4175.64102551;4304.61538476;4236.79487180;4137.82051262;4206.66666660;4205.12820506
4206.66666660;4202.43589737;4302.82051296;4206.41025634;5025.25641193;2006.28204656;8241.92308540;-0.00000896;4530.38461601;4535.00000063;4143.33333313;4306.66666681;4174.48717935;4110.64102537;4207.17948711;4205.12820506
4204.61538455;4202.94871788;4273.33333341;4207.94871788;4859.74359107;2009.35896964;-0.00000896;-0.00000896;4530.51282114;4534.23076986;4236.41025641;4304.10256425;4205.51282045;4136.53846133;4207.30769224;4205.12820506
4204.87179481;4203.97435891;4404.74359009;4207.56410250;5121.53846342;2037.56409791;-0.00000896;-0.00000896;4530.00000063;4564.35897506;4238.84615385;4304.35897450;4237.82051282;4135.38461518;4207.94871788;4205.12820506
4205.51282045;4203.71794865;4332.30769252;4206.41025634;4860.38461671;2037.56409791;-0.00000896;-0.00000896;4502.43589800;4565.89743660;4173.58974345;4306.66666681;4201.92307686;4137.05128185;4206.92307686;4205.12820506
4206.15384609;4203.84615378;4336.41025662;4207.94871788;5027.30769398;2009.35896964;-0.00000896;-0.00000896;4529.35897499;4562.82051352;4174.61538448;4334.10256431;4170.25641012;4137.43589723;4207.17948711;4205.12820506
4204.87179481;4202.94871788;4237.17948718;4206.66666660;4955.89743743;2035.64102099;-0.00000896;-0.00000896;4530.89743653;4536.79487242;4103.07692280;4303.33333348;4170.38461525;4137.43589723;4207.05128199;4205.12820506
4205.38461532;4202.43589737;4334.10256431;4207.05128199;4894.48718088;2035.25640560;-0.00000896;-0.00000896;4529.74359037;4536.92307755;4235.12820513;4306.41025655;4239.61538462;4137.43589723;4208.20512814;4205.12820506
4205.89743583;4202.30769224;4272.82051289;4207.56410250;4536.28205191;2037.94871330;-0.00000896;-0.00000896;4503.97435953;4567.30769301;4201.53846147;4305.12820527;4267.30769238;4139.35897415;4207.56410250;4205.12820506
4205.76923070;4201.79487173;4303.97435912;4208.07692301;5061.28205302;2036.79486714;-0.00000896;-0.00000896;4531.02564165;4567.94871865;4207.69230763;4303.07692322;4139.99999980;4135.89743569;4234.10256411;4205.12820506
4206.02564096;4202.17948711;4240.64102564;4209.10256404;4895.89743729;2036.28204663;-0.00000896;-0.00000896;4530.38461601;4564.10256480;4138.46153826;4301.28205142;4073.97435863;4136.41025621;4207.17948711;4205.12820506
4205.51282045;4202.30769224;4300.51282066;4233.97435898;5121.66666855;2035.76922612;-0.00000896;-0.00000896;4530.89743653;4563.58974429;4142.30769210;4304.61538476;4106.15384588;4137.56410236;4206.28205122;4205.12820506
4204.35897429;4201.15384609;4401.41025676;4233.84615385;4864.10256543;2009.35896964;-0.00000896;-0.00000896;4530.25641089;4536.28205191;4237.17948718;4303.97435912;4137.30769210;4137.30769210;4207.05128199;4205.12820506
4204.10256404;4201.66666660;4366.66666695;4235.12820513;5091.79487361;2036.79486714;-0.00000896;-0.00000896;4504.23076979;4562.69230839;4169.74358961;4307.17948732;4203.33333327;4136.79487159;4207.05128199;4205.12820506
4203.84615378;4201.15384609;4271.15384623;4236.15384616;4824.74359100;2036.41025176;-0.00000896;-0.00000896;4529.61538524;4566.28205198;4136.15384595;4304.23076937;4203.07692301;4137.69230749;4204.61538455;4205.12820506
4204.61538455;4202.30769224;4307.05128219;4235.12820513;4927.82051428;2039.23076458;-0.00000896;-0.00000896;4530.00000063;4562.17948788;4171.92307679;4304.48717963;4140.51282031;4138.58974339;4207.30769224;4205.12820506
4203.07692301;4175.51282038;4273.71794879;4235.89743590;4824.87179613;2035.76922612;-0.00000896;-0.00000896;4529.35897499;4563.33333403;4204.23076917;4302.30769245;4201.92307686;4135.89743569;4207.56410250;4205.12820506
4203.71794865;4175.51282038;4466.02564152;4234.74358975;5026.79487347;2038.07691843;-0.00000896;-0.00000896;4503.46153902;4535.00000063;4304.48717963;4303.07692322;4172.82051269;4137.30769210;4206.92307686;4205.12820506
4203.71794865;4201.53846147;4370.89743618;4236.15384616;4993.71795032;2034.99999535;-0.00000896;-0.00000896;4501.28205184;4534.48718012;4269.74358982;4307.43589758;4234.35897436;4135.76923056;4207.30769224;4205.12820506
4203.97435891;4201.15384609;4337.30769252;4235.25641026;5026.28205295;2035.12820048;-0.00000896;-0.00000896;4503.97435953;4564.74359044;4173.84615371;4305.64102578;4141.79487159;4136.66666646;4206.79487173;4205.12820506
4203.46153840;4201.66666660;4366.15384644;4234.48717949;4963.97436051;2008.84614912;-0.00000896;-0.00000896;4504.23076979;4537.17948781;4170.51282038;4305.12820527;4174.61538448;4135.51282031;4207.69230763;4205.12820506
4202.94871788;4175.89743576;4369.61538490;4234.87179488;4958.84615538;2037.43589278;-0.00000896;-0.00000896;4503.33333389;4534.74359037;4171.53846140;4303.58974373;4169.99999986;4136.28205108;4206.79487173;4205.12820506
4202.82051275;4201.02564096;4371.28205156;4201.28205122;4960.76923230;2036.41025176;-0.00000896;-0.00000896;4501.15384671;4530.38461601;4268.20512828;4304.10256425;4235.38461539;4136.41025621;4207.82051275;4205.12820506
4204.48717942;4202.69230763;4302.17948732;4208.97435891;4826.02564228;2008.46153374;-0.00000896;-0.00000896;4503.33333389;4562.17948788;4173.84615371;4305.51282066;4169.99999986;4136.41025621;4207.05128199;4205.12820506
4204.99999993;4201.41025634;4304.61538476;4233.84615385;4993.84615545;2037.94871330;-0.00000896;-0.00000896;4501.66666723;4536.28205191;4174.23076910;4306.41025655;4203.33333327;4137.82051262;4207.05128199;4205.12820506
4204.87179481;4202.30769224;4235.12820513;4208.58974352;4828.46153972;2037.69230304;-0.00000896;-0.00000896;4502.05128261;4534.10256473;4139.74358954;4306.15384630;4206.66666660;4136.15384595;4206.79487173;4205.12820506
4205.12820506;4202.43589737;4437.17948760;4208.58974352;4960.00000153;2038.71794407;229.99999153;-0.00000896;4500.89743646;4531.66666730;4237.43589744;4305.89743604;4268.58974366;4137.17948697;4207.05128199;4205.12820506
4205.38461532;4203.58974352;4336.92307714;4233.97435898;4795.38461657;2035.76922612;229.99999153;-0.00000896;4502.69230825;4531.02564165;4236.53846154;4307.30769245;4299.74358989;4135.64102544;4207.05128199;4205.12820506
4206.02564096;4202.43589737;4273.07692315;4207.17948711;4864.74359107;2037.94871330;229.99999153;-0.00000896;4529.35897499;4564.48718019;4142.30769210;4304.48717963;4235.25641026;4135.38461518;4207.30769224;4205.12820506
4205.89743583;4202.69230763;4267.30769238;4208.84615378;4857.43589876;2036.79486714;229.99999153;-0.00000896;4529.61538524;4564.23076993;4169.74358961;4307.56410271;4168.20512807;4136.66666646;4206.79487173;4205.12820506
4205.76923070;4203.07692301;4267.94871802;4207.82051275;4826.28205254;2035.25640560;8240.89744438;-0.00000896;4504.10256466;4537.05128268;4202.43589737;4304.74358989;4208.97435891;4110.51282024;4207.43589737;4205.12820506
4206.41025634;4202.82051275;4403.33333368;4207.05128199;4962.69230922;2035.64102099;103.97435022;-0.00000896;4504.48718005;4534.23076986;4268.46153853;4305.89743604;4237.69230770;4136.53846133;4208.46153840;4205.12820506
4205.51282045;4202.17948711;4302.82051296;4207.94871788;4926.53846300;2009.87179015;229.99999153;-0.00000896;4531.41025704;4536.66666730;4175.64102551;4305.76923091;4235.89743590;4135.76923056;4207.30769224;4205.12820506
4205.64102558;4202.43589737;4306.92307707;4207.69230763;4794.48718067;2037.94871330;103.97435022;-0.00000896;4530.12820576;4563.97435967;4170.38461525;4304.74358989;4268.07692315;4136.28205108;4207.30769224;4205.12820506
4206.15384609;4202.43589737;4305.76923091;4208.07692301;4928.46153992;2008.84614912;229.99999153;-0.00000896;4530.51282114;4562.56410326;4201.28205122;4332.43589765;4208.71794865;4136.53846133;4207.43589737;4205.12820506
4206.15384609;4203.07692301;4962.30769384;4207.30769224;4863.46153979;2009.10255938;103.97435022;-0.00000896;4529.74359037;4563.20512890;4892.05128344;4305.51282066;4861.53846286;4136.41025621;4207.05128199;4205.12820506
4205.89743583;4202.69230763;4963.58974512;4208.46153840;4797.94871913;2008.33332861;229.99999153;-0.00000896;4533.07692371;4565.25641096;4891.02564242;4304.48717963;4797.43589862;4136.53846133;4207.69230763;4205.12820506
4205.51282045;4176.28205115;4958.97436051;4208.20512814;4962.43589897;2035.89743125;103.97435022;-0.00000896;4532.43589807;4537.17948781;4893.97436037;4304.48717963;4798.07692426;4136.28205108;4207.30769224;4205.12820506
4203.97435891;4202.30769224;4931.02564249;4208.58974352;4924.23077069;2036.92307227;229.99999153;-0.00000896;4531.28205191;4536.92307755;4795.76923195;4306.53846168;4759.74359086;4135.89743569;4206.79487173;4205.12820506
4203.20512814;4202.05128199;4863.46153979;4208.71794865;5028.71795039;2040.64102099;103.97435022;-0.00000896;4529.74359037;4536.41025704;4731.53846258;4307.05128219;4796.15384734;4138.33333313;4206.79487173;4205.12820506
4202.43589737;4202.94871788;5121.41025829;4234.48717949;4824.74359100;2036.15384150;229.99999153;-0.00000896;4531.41025704;4532.82051345;4929.48718095;4303.84615399;4859.23077055;4136.66666646;4208.33333327;4205.12820506
4203.71794865;4203.33333327;5056.02564277;4208.58974352;4989.23077083;2034.99999535;103.97435022;-0.00000896;4531.92307755;4563.97435967;4897.82051421;4304.61538476;4863.33333466;4135.51282031;4206.92307686;4205.12820506
4203.46153840;4204.23076917;4956.79487333;4234.23076923;4928.33333480;2036.92307227;229.99999153;-0.00000896;4503.97435953;4534.48718012;4825.38461664;4332.82051303;4764.74359086;4136.41025621;4206.92307686;4205.12820506
4203.71794865;4204.35897429;5025.51282218;4234.35897436;4930.25641172;2038.20512355;103.97435022;-0.00000896;4503.33333389;4562.69230839;4926.92307839;4305.00000014;4734.23077028;4110.38461511;4207.17948711;4205.12820506
4203.71794865;4204.74358968;4763.07692419;4234.10256411;4793.33333452;2038.33332868;229.99999153;-0.00000896;4502.17948774;4564.74359044;4700.51282149;4306.28205142;4666.79487270;4137.43589723;4206.92307686;4205.12820506
4204.74358968;4204.23076917;5024.74359142;4241.92307693;4825.25641151;2038.58973894;103.97435022;-0.00000896;4502.69230825;4535.64102627;4893.33333473;4305.89743604;4761.28205240;4138.20512800;4207.05128199;4205.12820506
4206.02564096;4203.97435891;4895.89743729;4234.10256411;4992.94871955;2037.30768766;229.99999153;-0.00000896;4529.74359037;4567.17948788;4826.92307818;4332.82051303;4730.76923182;4136.02564082;4205.76923070;4205.12820506
4206.66666660;4202.56410250;4858.58974491;4233.97435898;4928.97436044;2009.61537989;103.97435022;-0.00000896;4530.25641089;4567.94871865;4729.23077028;4306.66666681;4732.69230874;4136.79487159;4206.79487173;4205.12820506
4206.66666660;4203.46153840;4927.56410403;4208.33333327;4860.12820645;2037.30768766;229.99999153;-0.00000896;4529.61538524;4567.43589813;4797.82051401;4305.00000014;4759.87179599;4135.89743569;4206.66666660;4205.12820506
4208.07692301;4202.56410250;4832.17948843;4207.82051275;4861.15384748;2035.89743125;103.97435022;-0.00000896;4530.89743653;4535.38461601;4700.89743687;4304.35897450;4663.84615475;4136.79487159;4206.15384609;4205.12820506
4207.69230763;4202.94871788;4928.97436044;4206.66666660;4797.05128324;2010.12820041;229.99999153;-0.00000896;4533.71794935;4536.02564165;4830.38461664;4303.46153860;4793.97436016;4136.28205108;4207.17948711;4205.12820506
4205.64102558;4202.82051275;4831.92307818;4207.56410250;4824.61538587;2037.05127740;103.97435022;-0.00000896;4534.48718012;4537.30769294;4733.58974464;4305.25641040;4701.28205226;4136.41025621;4206.41025634;4205.12820506
4205.76923070;4203.33333327;4799.10256529;4206.53846147;4989.23077083;2035.38461073;229.99999153;-0.00000896;4535.00000063;4565.64102634;4661.66666757;4306.02564117;4633.71794956;4137.82051262;4207.30769224;4205.12820506
4205.25641019;4204.99999993;4765.89743701;4207.30769224;4829.74359100;2037.94871330;103.97435022;-0.00000896;4534.23076986;4566.15384685;4665.12820604;4332.30769252;4633.07692391;4137.17948697;4207.05128199;4205.12820506
4204.87179481;4203.07692301;4860.38461671;4207.30769224;4930.25641172;2038.33332868;229.99999153;-0.00000896;4533.58974422;4566.28205198;4699.35897534;4305.25641040;4631.15384699;4136.92307672;4207.56410250;4205.12820506
4204.61538455;4203.33333327;4859.87179620;4207.56410250;4959.48718102;2037.69230304;103.97435022;-0.00000896;4532.30769294;4563.33333403;4761.41025753;4306.53846168;4726.79487284;4135.76923056;4207.56410250;4205.12820506
4203.33333327;4203.20512814;4761.66666778;4208.84615378;4828.71794997;2036.92307227;229.99999153;-0.00000896;4529.87179550;4566.15384685;4631.15384699;4304.10256425;4634.74359058;4136.15384595;4207.17948711;4205.12820506
4203.97435891;4203.71794865;4792.94871913;4233.97435898;4923.07692454;2039.74358509;103.97435022;-0.00000896;4530.00000063;4596.02564179;4664.23077014;4305.38461553;4599.35897513;4138.33333313;4207.30769224;4205.12820506
4205.64102558;4203.84615378;4632.17948802;4234.10256411;4926.02564249;2038.20512355;229.99999153;-0.00000896;4530.25641089;4565.89743660;4531.15384678;4304.10256425;4567.82051352;4137.30769210;4206.92307686;4205.12820506
4205.12820506;4203.71794865;4798.07692426;4234.23076923;4926.28205275;2009.87179015;8239.87180335;-0.00000896;4531.02564165;4564.87179557;4662.05128296;4304.74358989;4563.71794942;4136.53846133;4207.43589737;4205.12820506
4205.64102558;4202.82051275;4699.48718046;4234.87179488;4988.71795032;2007.94871323;8274.87180342;-0.00000896;4532.56410319;4565.25641096;4631.02564186;4305.51282066;4597.17948795;4137.30769210;4208.58974352;4205.12820506
4205.51282045;4202.69230763;4596.28205205;4234.35897436;4929.10256557;2036.28204663;8276.02564958;-0.00000896;4533.07692371;4596.02564179;4529.35897499;4304.35897450;4570.00000070;4137.94871774;4207.69230763;4205.12820506
4206.66666660;4201.41025634;4727.56410361;4235.12820513;4930.64102710;2036.92307227;229.99999153;-0.00000896;4532.17948781;4565.76923147;4568.07692378;4305.64102578;4532.94871858;4135.38461518;4207.30769224;4205.12820506
4206.41025634;4201.41025634;4570.00000070;4234.74358975;4791.79487298;2039.74358509;229.99999153;-0.00000896;4531.02564165;4562.30769301;4503.20512876;4306.79487194;4595.25641102;4136.28205108;4207.30769224;4205.12820506
4205.51282045;4201.15384609;4764.23077035;4235.00000000;4794.35897554;2038.58973894;229.99999153;-0.00000896;4532.05128268;4562.94871865;4598.97435974;4304.61538476;4597.05128282;4138.71794851;4206.53846147;4205.12820506
4205.25641019;4175.89743576;4635.12820597;4235.00000000;5187.43589945;2009.87179015;229.99999153;-0.00000896;4532.56410319;4569.61538531;4563.07692378;4304.48717963;4535.38461601;4137.30769210;4207.17948711;4205.12820506
4203.97435891;4201.02564096;4565.12820583;4234.23076923;4767.05128317;2037.30768766;-0.00000896;-0.00000896;4532.94871858;4565.25641096;4470.25641075;4305.51282066;4531.02564165;4137.30769210;4234.74358975;4205.12820506
4203.46153840;4201.41025634;4633.33333417;4236.15384616;4957.05128358;2038.84614919;-0.00000896;-0.00000896;4532.69230832;4565.76923147;4532.43589807;4303.33333348;4499.61538518;4135.89743569;4207.30769224;4205.12820506
4202.17948711;4201.02564096;4627.94871879;4235.76923077;4798.20512939;2037.05127740;-0.00000896;-0.00000896;4531.28205191;4563.20512890;4501.92307748;4302.82051296;4567.17948788;4137.05128185;4207.17948711;4205.12820506
4202.43589737;4201.02564096;4667.69230860;4234.61538462;5054.61538636;2038.84614919;-0.00000896;-0.00000896;4531.15384678;4565.12820583;4566.15384685;4303.33333348;4531.66666730;4136.53846133;4207.56410250;4205.12820506
4202.94871788;4201.02564096;4663.46153937;4233.84615385;4924.23077069;2041.02563637;-0.00000896;-0.00000896;4530.89743653;4564.48718019;4463.84615434;4307.17948732;4500.38461594;4136.92307672;4207.17948711;4205.12820506
4202.82051275;4201.92307686;4567.17948788;4209.10256404;5055.12820687;2036.41025176;-0.00000896;-0.00000896;4530.89743653;4563.33333403;4465.00000049;4306.66666681;4468.07692357;4137.82051262;4206.92307686;4205.12820506
4203.20512814;4201.66666660;4595.89743667;4209.10256404;5027.82051449;2037.82050817;-0.00000896;-0.00000896;4530.12820576;4565.38461608;4436.15384657;4307.17948732;4436.02564145;4136.79487159;4206.92307686;4205.12820506
4202.05128199;4201.66666660;4602.17948795;4234.74358975;4989.48718109;2038.33332868;-0.00000896;-0.00000896;4529.35897499;4564.23076993;4533.97435960;4306.15384630;4499.74359030;4136.02564082;4207.30769224;4205.12820506
4204.61538455;4203.07692301;4627.94871879;4208.33333327;4859.10256543;2039.87179022;-0.00000896;-0.00000896;4503.33333389;4537.17948781;4465.89743639;4306.53846168;4531.02564165;4136.28205108;4207.30769224;4205.12820506
4205.51282045;4202.82051275;4535.25641089;4208.97435891;4895.64102703;2038.33332868;-0.00000896;-0.00000896;4504.48718005;4536.66666730;4400.00000035;4307.05128219;4502.94871851;4138.33333313;4204.61538455;4205.12820506
4206.28205122;4201.92307686;4534.87179550;4208.46153840;4924.87179633;2039.99999535;-0.00000896;-0.00000896;4503.58974415;4535.89743653;4337.82051303;4306.53846168;4431.79487222;4136.28205108;4207.43589737;4205.12820506
4205.76923070;4203.20512814;4469.23076972;4207.82051275;4988.71795032;2035.89743125;-0.00000896;-0.00000896;4532.17948781;4564.61538531;4370.38461567;4304.10256425;4437.17948760;4137.05128185;4207.56410250;4205.12820506
4206.41025634;4203.07692301;4631.28205212;4207.94871788;4898.20512960;2034.87179022;-0.00000896;-0.00000896;4532.69230832;4562.69230839;4468.20512870;4306.15384630;4436.41025683;4136.79487159;4206.66666660;4205.12820506
4207.30769224;4203.07692301;4534.35897499;4206.92307686;5158.97436092;2009.61537989;-0.00000896;-0.00000896;4533.84615448;4563.97435967;4401.41025676;4303.84615399;4366.66666695;4137.17948697;4207.43589737;4205.12820506
4205.51282045;4203.84615378;4438.07692350;4206.28205122;4662.05128296;2006.79486707;-0.00000896;-0.00000896;4535.00000063;4563.71794942;4335.89743611;4306.53846168;4365.25641054;4137.43589723;4207.05128199;4205.12820506
4206.15384609;4203.84615378;4470.38461587;4206.79487173;5058.20512995;2035.12820048;-0.00000896;-0.00000896;4535.38461601;4569.10256480;4273.07692315;4307.30769245;4273.07692315;4137.05128185;4206.92307686;4205.12820506
4206.28205122;4203.07692301;4437.94871837;4207.94871788;4696.79487277;2009.99999528;-0.00000896;-0.00000896;4536.66666730;4568.71794942;4301.28205142;4304.48717963;4366.41025669;4135.89743569;4236.79487180;4205.12820506
4204.74358968;4203.84615378;4565.12820583;4207.43589737;4832.69230895;2039.48717484;-0.00000896;-0.00000896;4532.43589807;4565.89743660;4435.89743632;4303.97435912;4404.35897471;4137.17948697;4206.92307686;4205.12820506
4205.38461532;4203.46153840;4499.10256466;4208.46153840;5025.64102731;2039.23076458;-0.00000896;-0.00000896;4533.46153909;4564.10256480;4333.58974380;4304.48717963;4307.43589758;4137.56410236;4207.17948711;4205.12820506
4206.28205122;4203.71794865;4398.33333368;4207.56410250;4830.00000125;2037.69230304;-0.00000896;-0.00000896;4534.10256473;4569.48718019;4335.89743611;4305.64102578;4306.15384630;4137.94871774;4207.56410250;4205.12820506
4206.79487173;4202.56410250;4432.30769273;4208.97435891;4930.64102710;2035.25640560;-0.00000896;-0.00000896;4534.87179550;4569.61538531;4273.71794879;4304.48717963;4271.53846161;4137.43589723;4206.28205122;4205.12820506
4205.89743583;4201.79487173;4464.87179536;4233.84615385;5025.76923244;2009.61537989;-0.00000896;-0.00000896;4536.15384678;4566.41025711;4333.58974380;4304.74358989;4307.56410271;4137.69230749;4207.56410250;4205.12820506
4206.28205122;4176.15384602;4565.89743660;4234.35897436;4897.82051421;2037.17948253;-0.00000896;-0.00000896;4534.48718012;4569.10256480;4340.25641047;4303.97435912;4366.66666695;4136.02564082;4207.43589737;4205.12820506
4204.99999993;4201.92307686;4434.87179529;4234.61538462;5058.07692482;2040.76922612;-0.00000896;-0.00000896;4535.64102627;4566.28205198;4305.64102578;4302.82051296;4334.87179508;4136.28205108;4207.56410250;4205.12820506
4204.61538455;4202.30769224;4431.02564145;4209.10256404;4927.43589890;2038.33332868;229.99999153;-0.00000896;4534.74359037;4563.84615454;4239.61538462;4303.07692322;4273.20512828;4136.15384595;4235.00000000;4205.12820506
4205.38461532;4202.94871788;4368.46153874;4241.41025641;4963.97436051;2038.84614919;8238.20513669;-0.00000896;4535.12820576;4563.71794942;4240.76923077;4304.61538476;4272.05128212;4135.89743569;4207.05128199;4205.12820506
4203.71794865;4201.79487173;4497.69230825;4235.51282052;4828.33333459;2035.38461073;8244.35898284;-0.00000896;4533.71794935;4566.15384685;4370.64102592;4301.15384630;4372.82051310;4137.82051262;4206.92307686;4205.12820506
4203.33333327;4201.66666660;4534.35897499;4235.38461539;5025.89743757;2038.33332868;8272.30770086;-0.00000896;4532.94871858;4566.66666737;4399.48717984;4304.35897450;4431.66666709;4137.69230749;4209.10256404;4205.12820506
4203.71794865;4202.05128199;4405.00000035;4234.23076923;4794.87179606;2039.23076458;229.99999153;-0.00000896;4531.41025704;4567.56410326;4271.28205136;4305.51282066;4368.71794900;4110.25640998;4207.30769224;4205.12820506
4203.46153840;4202.30769224;4404.48717984;4234.87179488;4926.15384762;2037.05127740;229.99999153;-0.00000896;4530.00000063;4563.97435967;4266.79487187;4305.51282066;4305.00000014;4136.41025621;4207.30769224;4205.12820506
4204.74358968;4201.92307686;4336.92307714;4208.46153840;4667.69230860;2035.76922612;229.99999153;-0.00000896;4532.69230832;4565.89743660;4239.23076923;4304.74358989;4304.23076937;4136.53846133;4207.17948711;4205.12820506
4204.10256404;4202.69230763;4465.76923126;4234.87179488;5090.89743771;2009.23076451;229.99999153;-0.00000896;4533.33333396;4565.25641096;4301.66666681;4302.30769245;4307.56410271;4136.66666646;4207.30769224;4205.12820506
4204.48717942;4202.56410250;4398.84615420;4208.07692301;4762.05128317;2037.56409791;229.99999153;-0.00000896;4531.53846217;4564.61538531;4273.07692315;4304.23076937;4338.97435919;4137.82051262;4207.17948711;4205.12820506
4205.76923070;4202.82051275;4372.05128233;4208.33333327;4931.15384762;2037.30768766;229.99999153;-0.00000896;4534.35897499;4564.10256480;4236.92307693;4303.20512835;4300.38461553;4136.28205108;4207.05128199;4205.12820506
4204.35897429;4201.79487173;4366.92307720;4208.20512814;4897.05128344;2008.20512348;229.99999153;-0.00000896;4535.89743653;4562.30769301;4237.69230770;4333.71794893;4333.20512842;4138.97435877;4207.05128199;4205.12820506
4203.84615378;4202.69230763;4372.17948746;4207.30769224;4928.84615531;2037.05127740;229.99999153;-0.00000896;4536.28205191;4563.20512890;4240.12820513;4303.97435912;4337.82051303;4137.05128185;4208.20512814;4205.12820506
4204.99999993;4201.92307686;4403.33333368;4207.82051275;4792.94871913;2036.53845689;229.99999153;-0.00000896;4534.87179550;4562.17948788;4270.25641033;4302.56410271;4366.66666695;4139.61538441;4206.66666660;4205.12820506
4204.74358968;4203.20512814;4338.84615406;4208.07692301;5059.10256584;2037.69230304;229.99999153;-0.00000896;4534.87179550;4595.89743667;4237.82051282;4303.46153860;4334.87179508;4137.94871774;4207.30769224;4205.12820506
4206.02564096;4202.82051275;4302.82051296;4205.51282045;4959.48718102;2036.92307227;229.99999153;-0.00000896;4535.51282114;4564.10256480;4173.33333320;4301.28205142;4205.89743583;4139.10256390;4206.02564096;4205.12820506
4205.38461532;4202.30769224;4208.97435891;4207.17948711;5026.53846321;2038.20512355;229.99999153;-0.00000896;4537.17948781;4562.82051352;4170.38461525;4304.87179501;4267.82051289;4138.71794851;4206.92307686;4205.12820506
4205.51282045;4202.43589737;4335.25641047;4208.20512814;4796.41025760;2035.76922612;229.99999153;-0.00000896;4534.74359037;4567.05128275;4173.97435884;4303.84615399;4234.61538462;4138.58974339;4207.17948711;4205.12820506
4206.28205122;4201.92307686;4338.07692329;4207.94871788;5157.94871990;2038.58973894;229.99999153;-0.00000896;4535.76923140;4569.35897506;4204.74358968;4302.30769245;4305.76923091;4137.30769210;4207.69230763;4205.12820506
4206.66666660;4201.92307686;4274.74358982;4208.97435891;4989.74359135;2038.20512355;229.99999153;-0.00000896;4537.05128268;4567.05128275;4138.97435877;4303.07692322;4333.58974380;4138.58974339;4207.43589737;4205.12820506
4206.92307686;4202.30769224;4239.10256411;4207.94871788;4925.25641172;2035.76922612;229.99999153;-0.00000896;4536.79487242;4566.15384685;4102.94871767;4303.20512835;4240.00000000;4140.51282031;4206.79487173;4205.12820506
4205.89743583;4201.41025634;4208.58974352;4208.97435891;4893.71795011;2006.79486707;229.99999153;-0.00000896;4563.71794942;4564.74359044;4072.56410222;4304.23076937;4201.53846147;4135.38461518;4209.10256404;4205.12820506
4204.10256404;4175.25641012;4271.15384623;4234.10256411;4992.17948878;2009.99999528;229.99999153;-0.00000896;4564.87179557;4568.71794942;4234.23076923;4306.02564117;4299.61538476;4136.79487159;4206.92307686;4205.12820506
4202.56410250;4174.23076910;4272.17948725;4208.71794865;4827.43589869;2039.10255945;229.99999153;-0.00000896;4563.46153916;4565.76923147;4142.69230749;4303.07692322;4204.87179481;4136.15384595;4207.17948711;4205.12820506
4201.28205122;4174.48717935;4201.92307686;4235.25641026;4925.12820659;2041.02563637;229.99999153;-0.00000896;4536.92307755;4562.69230839;4071.02564068;4305.38461553;4207.17948711;4136.53846133;4207.43589737;4205.12820506
4201.02564096;4174.23076910;4236.41025641;4235.25641026;4956.02564256;2042.56409791;229.99999153;-0.00000896;4535.12820576;4567.43589813;4076.53846119;4305.38461553;4204.10256404;4138.84615364;4207.30769224;4205.12820506
4176.28205115;4175.12820499;4236.53846154;4234.74358975;4762.69230881;2038.71794407;229.99999153;-0.00000896;4532.94871858;4536.41025704;4011.02564054;4303.97435912;4204.10256404;4136.41025621;4207.17948711;4172.30769217
4204.23076917;4202.17948711;4202.82051275;4235.00000000;5029.48718116;2037.56409791;136.53845286;-0.00000896;4535.00000063;4536.92307755;4140.89743569;4304.74358989;4175.12820499;4136.92307672;4207.17948711;4205.12820506
4204.99999993;4201.66666660;4169.10256397;4208.97435891;4758.97436009;2040.64102099;229.99999153;-0.00000896;4536.15384678;4535.76923140;4043.71794830;4302.30769245;4104.99999973;4136.28205108;4207.17948711;4205.12820506
4206.15384609;4202.05128199;4202.82051275;4234.35897436;4927.05128351;2037.30768766;136.53845286;-0.00000896;4534.87179550;4534.87179550;4038.84615343;4302.94871809;4168.20512807;4138.71794851;4205.51282045;4205.12820506
4205.64102558;4202.30769224;4272.69230777;4208.33333327;4825.76923202;2039.61537996;229.99999153;-0.00000896;4536.53846217;4535.00000063;4107.94871767;4305.12820527;4238.97435898;4137.05128185;4206.92307686;4205.12820506
4205.89743583;4203.07692301;4306.28205142;4233.84615385;5220.51282260;2035.89743125;8243.71795720;-0.00000896;4562.69230839;4536.02564165;4168.58974345;4303.71794886;4240.12820513;4137.69230749;4207.94871788;4205.12820506
4206.15384609;4203.58974352;4208.84615378;4208.07692301;4925.51282198;2041.41025176;134.35896568;-0.00000896;4563.20512890;4565.76923147;4107.43589716;4301.79487194;4143.46153826;4136.92307672;4207.30769224;4205.12820506
4204.99999993;4203.46153840;4171.41025628;4208.71794865;5024.10256577;2039.99999535;8271.66667522;-0.00000896;4536.02564165;4535.51282114;4040.89743548;4304.87179501;4103.58974332;4138.20512800;4206.53846147;4205.12820506
4206.02564096;4204.48717942;4142.30769210;4208.33333327;4858.84615517;2038.71794407;229.99999153;-0.00000896;4536.66666730;4537.30769294;4041.41025600;4304.35897450;4108.97435870;4137.05128185;4207.17948711;4205.12820506
4205.25641019;4204.10256404;4300.38461553;4208.71794865;4960.89743743;2037.69230304;229.99999153;-0.00000896;4537.17948781;4566.92307762;4169.48717935;4304.23076937;4238.20512821;4137.05128185;4206.02564096;4205.12820506
4206.15384609;4203.20512814;4237.05128206;4208.97435891;4799.61538580;2040.38461073;229.99999153;-0.00000896;4537.30769294;4565.38461608;4072.69230735;4332.94871816;4233.97435898;4137.30769210;4206.66666660;4205.12820506
4205.89743583;4203.07692301;4206.41025634;4208.07692301;4897.56410396;2035.89743125;229.99999153;-0.00000896;4537.05128268;4595.51282128;4073.33333299;4305.00000014;4233.97435898;4136.15384595;4204.87179481;4205.12820506
4205.64102558;4203.20512814;4143.07692287;4233.84615385;4863.46153979;2038.33332868;-0.00000896;-0.00000896;4535.00000063;4568.20512890;4070.12820478;4303.84615399;4138.33333313;4137.56410236;4206.79487173;4205.12820506
4205.51282045;4202.82051275;4176.15384602;4234.61538462;4766.02564214;2035.25640560;-0.00000896;-0.00000896;4536.79487242;4563.97435967;4073.71794837;4303.07692322;4138.20512800;4136.28205108;4207.05128199;4205.12820506
4205.51282045;4201.53846147;4236.79487180;4208.71794865;5061.53846328;2036.53845689;-0.00000896;-0.00000896;4562.17948788;4563.71794942;4136.66666646;4303.46153860;4137.82051262;4138.71794851;4208.97435891;4205.12820506
4206.79487173;4202.05128199;4174.35897422;4208.33333327;5024.35897603;2036.66666201;-0.00000896;-0.00000896;4562.94871865;4567.69230839;4070.64102530;4303.07692322;4168.84615371;4135.64102544;4207.30769224;4205.12820506
4205.25641019;4201.53846147;4139.61538441;4208.84615378;4860.51282184;2035.51281586;-0.00000896;-0.00000896;4536.66666730;4564.35897506;4009.74358926;4306.15384630;4174.23076910;4137.69230749;4207.05128199;4205.12820506
4205.38461532;4201.66666660;4201.53846147;4207.56410250;4831.28205254;2037.82050817;-0.00000896;-0.00000896;4563.46153916;4567.56410326;3974.10256355;4303.46153860;4137.94871774;4109.74358947;4207.43589737;4205.12820506
4205.38461532;4201.41025634;4204.87179481;4207.43589737;4897.56410396;2036.92307227;-0.00000896;-0.00000896;4564.48718019;4535.38461601;4037.05128164;4305.38461553;4172.43589730;4136.92307672;4208.97435891;4205.12820506
4203.33333327;4201.02564096;4270.12820520;4207.30769224;5025.25641193;2039.23076458;-0.00000896;-0.00000896;4565.12820583;4564.35897506;4108.97435870;4304.48717963;4173.71794858;4136.28205108;4207.69230763;4205.12820506
4203.97435891;4201.79487173;4171.92307679;4207.30769224;4993.97436058;2040.89743125;-0.00000896;-0.00000896;4562.69230839;4564.23076993;4106.28205101;4304.23076937;4141.15384595;4137.56410236;4208.46153840;4205.12820506
4204.48717942;4203.71794865;4172.56410243;4207.82051275;5055.89743764;2041.79486714;-0.00000896;-0.00000896;4535.89743653;4565.64102634;4043.20512779;4305.51282066;4103.71794844;4136.02564082;4207.30769224;4205.12820506
4204.10256404;4203.20512814;4105.25640998;4207.43589737;4992.43589904;2040.25640560;-0.00000896;-0.00000896;4562.69230839;4568.84615454;4037.17948677;4303.33333348;4138.71794851;4137.43589723;4207.69230763;4205.12820506
4204.35897429;4203.58974352;4303.58974373;4208.33333327;4993.20512981;2040.12820048;-0.00000896;-0.00000896;4562.56410326;4567.94871865;4109.74358947;4304.10256425;4175.38461525;4137.17948697;4206.79487173;4205.12820506
4205.64102558;4203.07692301;4240.76923077;4208.58974352;4893.97436037;2039.48717484;-0.00000896;-0.00000896;4536.15384678;4563.58974429;4103.07692280;4301.66666681;4236.79487180;4136.02564082;4206.92307686;4205.12820506
4205.51282045;4202.30769224;4238.20512821;4208.20512814;4926.53846300;2037.17948253;-0.00000896;-0.00000896;4536.79487242;4565.00000070;4071.66666632;4304.87179501;4175.25641012;4110.64102537;4207.43589737;4205.12820506
4205.38461532;4202.56410250;4175.89743576;4233.84615385;5028.71795039;2037.17948253;-0.00000896;-0.00000896;4563.71794942;4564.35897506;4039.74358933;4304.48717963;4136.79487159;4136.79487159;4207.30769224;4205.12820506
4206.02564096;4201.15384609;4202.69230763;4234.61538462;4995.25641186;2039.10255945;-0.00000896;-0.00000896;4565.00000070;4567.05128275;4076.53846119;4302.05128219;4138.07692287;4109.10256383;4207.43589737;4205.12820506
4206.41025634;4201.53846147;4299.61538476;4233.84615385;5024.10256577;2039.48717484;-0.00000896;-0.00000896;4564.74359044;4566.15384685;4208.58974352;4303.07692322;4173.71794858;4136.02564082;4207.30769224;4205.12820506
4205.76923070;4201.92307686;4301.02564117;4234.48717949;4930.64102710;2038.33332868;-0.00000896;-0.00000896;4564.61538531;4564.35897506;4139.87179467;4303.58974373;4206.53846147;4135.38461518;4207.30769224;4205.12820506
4205.64102558;4202.94871788;4302.94871809;4208.20512814;4825.38461664;2036.15384150;-0.00000896;-0.00000896;4566.41025711;4568.84615454;4102.69230742;4304.10256425;4202.69230763;4136.53846133;4207.17948711;4205.12820506
4205.76923070;4202.69230763;4274.35897443;4209.10256404;4895.12820652;2034.87179022;-0.00000896;-0.00000896;4565.64102634;4568.20512890;4070.25640991;4304.35897450;4173.33333320;4137.05128185;4207.30769224;4205.12820506
4205.38461532;4201.79487173;4305.89743604;4234.10256411;4862.05128338;2040.76922612;-0.00000896;-0.00000896;4565.12820583;4564.74359044;4011.66666618;4305.25641040;4204.61538455;4136.41025621;4207.05128199;4205.12820506
4204.48717942;4203.20512814;4434.61538504;4208.46153840;4897.56410396;2036.15384150;-0.00000896;-0.00000896;4565.51282121;4566.02564172;4170.51282038;4302.56410271;4300.12820527;4137.94871774;4207.30769224;4205.12820506
4204.35897429;4203.20512814;4338.46153867;4208.84615378;4962.17948871;2034.87179022;-0.00000896;-0.00000896;4564.74359044;4565.64102634;4136.15384595;4303.84615399;4238.33333334;4135.64102544;4206.92307686;4205.12820506
4204.99999993;4202.30769224;4301.53846168;4208.07692301;4955.89743743;2037.17948253;-0.00000896;-0.00000896;4568.46153916;4564.35897506;4107.30769203;4303.97435912;4174.48717935;4137.17948697;4208.84615378;4205.12820506
4203.84615378;4201.79487173;4333.33333355;4208.20512814;5025.89743757;2038.97435432;229.99999153;-0.00000896;4567.69230839;4565.25641096;4139.99999980;4305.38461553;4207.05128199;4136.02564082;4235.76923077;4205.12820506
4204.48717942;4202.05128199;4338.20512842;4207.43589737;4825.51282177;2037.17948253;8242.05129053;-0.00000896;4566.02564172;4565.00000070;4138.84615364;4302.94871809;4240.89743590;4137.43589723;4207.17948711;4205.12820506
4203.97435891;4201.53846147;4302.43589758;4233.97435898;4829.74359100;2038.33332868;137.94870927;-0.00000896;4567.17948788;4567.82051352;4170.89743576;4301.66666681;4302.82051296;4137.17948697;4207.30769224;4205.12820506
4203.84615378;4202.17948711;4274.61538469;4208.97435891;4963.71795025;2041.02563637;8276.41026496;-0.00000896;4566.92307762;4566.02564172;4071.15384581;4306.79487194;4172.43589730;4137.82051262;4207.30769224;4205.12820506
4203.20512814;4201.28205122;4237.94871795;4235.64102564;4963.07692461;2037.69230304;229.99999153;-0.00000896;4566.02564172;4565.64102634;4010.12820465;4303.84615399;4201.15384609;4136.28205108;4207.30769224;4205.12820506
4204.10256404;4201.02564096;4208.84615378;4234.35897436;4795.89743708;2038.71794407;229.99999153;-0.00000896;4565.12820583;4568.97435967;4075.25640991;4303.97435912;4175.12820499;4138.33333313;4207.43589737;4205.12820506
4203.71794865;4176.15384602;4299.74358989;4235.76923077;4996.79487340;2040.64102099;229.99999153;-0.00000896;4565.25641096;4568.07692378;4206.79487173;4304.48717963;4208.71794865;4136.41025621;4206.53846147;4205.12820506
4203.97435891;4201.28205122;4234.74358975;4235.64102564;4923.46153992;2038.97435432;229.99999153;-0.00000896;4566.02564172;4565.64102634;4140.25641005;4306.15384630;4169.74358961;4136.41025621;4207.17948711;4205.12820506
4204.23076917;4175.64102551;4208.20512814;4235.12820513;4929.87179633;2036.92307227;229.99999153;-0.00000896;4565.38461608;4535.00000063;4107.69230742;4303.07692322;4076.28205094;4136.02564082;4207.30769224;4205.12820506
4204.48717942;4175.51282038;4106.28205101;4237.30769231;4992.17948878;2038.58973894;229.99999153;-0.00000896;4565.64102634;4562.43589813;4006.02564054;4305.64102578;4072.05128171;4135.64102544;4207.05128199;4205.12820506
