Gyro-X;Gyro-Z;AF3;Gyro-Y;T7;Acc-X;Pz;QualityData_1;QualityData_2;Acc-Z;Acc-Y;T8;Mag-X;AF4;Mag-Z;Mag-Y;Mag-X;Gyro-X 
4239.74358975;4208.20512814;4102.69230742;4236.41025641;4371.53846182;2004.87179015;229.99999153;-0.00000896;4240.76923077;4635.76923161;4438.33333375;4302.43589758;4270.51282059;4174.99999986;4233.97435898;4237.94871795
4240.38461539;4207.82051275;4501.79487235;4208.97435891;4859.61538594;1975.12820034;229.99999153;-0.00000896;4266.92307700;4661.66666757;4237.69230770;4307.30769245;4269.35897443;4176.15384602;4208.07692301;4237.94871795
4240.38461539;4205.25641019;4236.02564103;4207.17948711;4235.64102564;2006.02563630;229.99999153;-0.00000896;4270.51282059;4635.76923161;3976.92307637;4305.00000014;4400.00000035;4174.99999986;4235.51282052;4237.94871795
4234.87179488;4235.12820513;4136.41025621;4206.79487173;4335.00000021;2074.74358516;229.99999153;-0.00000896;4368.58974387;4602.56410333;4333.97435919;4305.76923091;4271.66666674;4175.64102551;4208.58974352;4237.94871795
4233.84615385;4208.71794865;4201.41025634;4203.97435891;4273.58974366;1909.35896943;229.99999153;-0.00000896;4202.56410250;4695.25641123;4302.30769245;4304.35897450;4268.58974366;4174.99999986;4208.97435891;4237.94871795
4234.87179488;4205.25641019;4371.41025669;4207.05128199;4632.05128289;1977.30768752;229.99999153;-0.00000896;4273.33333341;4663.97435988;4208.71794865;4306.02564117;4207.69230763;4175.25641012;4233.97435898;4237.94871795
4208.46153840;4204.61538455;4202.94871788;4209.10256404;4235.51282052;2006.66666195;229.99999153;-0.00000896;4267.69230777;4664.23077014;3977.69230714;4303.58974373;3841.02564020;4174.10256397;4208.71794865;4205.12820506
4207.05128199;4205.25641019;4271.92307700;4208.84615378;4272.30769238;2002.94871323;229.99999153;-0.00000896;4270.25641033;4663.84615475;4074.48717914;4304.35897450;4168.71794858;4175.64102551;4208.58974352;4205.12820506
4204.99999993;4203.07692301;4234.48717949;4235.76923077;4208.07692301;2009.48717477;229.99999153;-0.00000896;4273.71794879;4664.35897527;4072.05128171;4304.48717963;4366.66666695;4176.28205115;4208.46153840;4205.12820506
4203.97435891;4202.82051275;3978.84615329;4235.76923077;4139.48717928;2037.17948253;229.99999153;-0.00000896;4273.20512828;4663.07692398;4402.43589779;4303.58974373;4038.97435856;4176.28205115;4235.00000000;4205.12820506
4202.17948711;4202.69230763;4433.58974401;4234.87179488;4631.41025725;2037.17948253;229.99999153;-0.00000896;4274.10256418;4660.89743680;4201.41025634;4301.15384630;4529.35897499;4174.87179474;4208.97435891;4205.12820506
4202.30769224;4203.07692301;4306.28205142;4234.87179488;4431.53846196;2036.41025176;229.99999153;-0.00000896;4273.97435905;4633.97435981;4172.82051269;4303.71794886;4044.74358933;4175.76923063;4209.10256404;4205.12820506
4201.53846147;4203.07692301;4333.84615406;4234.35897436;4300.00000014;2036.66666201;229.99999153;-0.00000896;4300.00000014;4633.46153930;4172.69230756;4304.35897450;4438.33333375;4175.76923063;4208.84615378;4205.12820506
4176.15384602;4202.30769224;4337.30769252;4236.41025641;4633.07692391;2007.17948246;229.99999153;-0.00000896;4300.25641040;4662.05128296;4334.48717970;4303.71794886;4497.69230825;4176.28205115;4208.84615378;4172.30769217
4174.61538448;4204.10256404;4106.92307665;4239.35897436;4339.23076944;2004.99999528;229.99999153;-0.00000896;4273.46153853;4664.10256501;4367.17948746;4304.74358989;4208.84615378;4175.38461525;4209.10256404;4172.30769217
4175.76923063;4202.94871788;4468.58974408;4241.15384616;4700.12820610;2007.43589271;229.99999153;-0.00000896;4299.87179501;4634.87179571;4306.66666681;4302.94871809;4202.05128199;4174.61538448;4206.41025634;4172.30769217
4175.51282038;4201.79487173;4240.76923077;4267.05128212;4273.97435905;2008.71794400;229.99999153;-0.00000896;4302.82051296;4633.71794956;4438.33333375;4303.84615399;4400.51282086;4175.51282038;4208.84615378;4172.30769217
4172.05128192;4203.07692301;4107.43589716;4270.64102571;4372.30769259;2036.02563637;229.99999153;-0.00000896;4307.43589758;4632.17948802;4235.76923077;4303.33333348;4073.07692273;4175.51282038;4205.64102558;4172.30769217
4168.58974345;4204.99999993;4534.23076986;4270.89743597;4496.66666723;2036.15384150;229.99999153;-0.00000896;4333.07692329;4630.89743674;4499.87179543;4306.02564117;4405.64102599;4176.02564089;4208.07692301;4172.30769217
4138.97435877;4205.76923070;4039.10256369;4272.69230777;4043.33333292;2039.23076458;229.99999153;-0.00000896;4333.71794893;4662.56410347;4340.38461560;4303.33333348;4271.79487187;4175.76923063;4207.82051275;4139.48717928
4109.74358947;4208.71794865;4598.33333410;4300.00000014;4463.71794921;2008.84614912;229.99999153;-0.00000896;4336.79487201;4635.76923161;4105.64102537;4305.89743604;4237.43589744;4174.74358961;4208.84615378;4106.66666639
4102.82051255;4233.97435898;4073.84615350;4303.97435912;4402.30769266;2036.92307227;229.99999153;-0.00000896;4335.51282073;4661.66666757;4303.71794886;4303.97435912;3977.43589688;4174.35897422;4208.84615378;4106.66666639
4072.82051248;4234.87179488;4269.74358982;4333.07692329;4468.97435946;2037.30768766;229.99999153;-0.00000896;4304.23076937;4662.56410347;4273.58974366;4303.58974373;4340.00000021;4176.02564089;4234.87179488;4073.97435863
4044.10256369;4236.28205129;4366.66666695;4335.76923098;4535.64102627;2037.82050817;-0.00000896;-0.00000896;4273.20512828;4665.89743680;4332.94871816;4304.10256425;4501.41025697;4176.02564089;4209.10256404;4041.15384574
4042.05128164;4239.87179488;4398.58974394;4366.02564131;4662.69230860;2039.99999535;-0.00000896;-0.00000896;4236.53846154;4697.43589841;4434.48717991;4306.79487194;4142.30769210;4175.38461525;4208.84615378;4041.15384574
4043.84615343;4241.02564103;4073.33333299;4340.25641047;4301.28205142;2036.53845689;229.99999153;-0.00000896;4206.15384609;4726.28205233;4436.15384657;4305.00000014;4401.28205163;4176.15384602;4233.84615385;4041.15384574
4044.87179446;4240.89743590;4568.58974429;4337.17948739;4628.33333417;2009.99999528;-0.00000896;-0.00000896;4174.87179474;4696.66666764;4143.07692287;4303.33333348;4107.82051255;4202.05128199;4234.35897436;4041.15384574
4070.89743555;4239.10256411;4465.51282100;4333.33333355;4663.33333424;2035.38461073;-0.00000896;-0.00000896;4140.76923056;4698.84615482;4502.43589800;4303.07692322;4563.97435967;4175.12820499;4208.71794865;4073.97435863
4073.97435863;4237.82051282;4333.84615406;4304.61538476;4370.89743618;2007.43589271;-0.00000896;-0.00000896;4139.61538441;4727.82051387;4108.97435870;4302.17948732;4007.82051234;4175.51282038;4235.00000000;4073.84615350
4102.94871767;4237.43589744;4102.69230742;4302.30769245;4236.41025641;2003.46153374;-0.00000896;-0.00000896;4107.82051255;4732.56410361;4269.23076930;4302.82051296;4598.58974436;4175.51282038;4208.97435891;4106.66666639
4107.30769203;4236.92307693;4367.94871823;4304.10256425;4174.87179474;1975.25640547;-0.00000896;-0.00000896;4103.20512793;4732.56410361;4533.46153909;4301.41025655;4042.17948677;4174.99999986;4208.71794865;4106.66666639
4138.84615364;4234.23076923;4333.71794893;4302.30769245;4564.74359044;2004.48717477;-0.00000896;-0.00000896;4076.41025607;4731.28205233;4400.89743625;4302.94871809;4404.74359009;4201.66666660;4234.10256411;4139.48717928
4168.71794858;4207.05128199;4497.82051338;4274.48717956;4597.30769308;2007.43589271;-0.00000896;-0.00000896;4077.30769196;4759.35897547;4598.97435974;4302.43589758;4400.25641061;4201.66666660;4234.10256411;4172.30769217
4174.10256397;4204.74358968;4497.43589800;4271.66666674;4700.64102662;2006.28204656;-0.00000896;-0.00000896;4074.74358940;4733.33333438;4369.87179515;4303.33333348;4862.82051414;4201.92307686;4206.66666660;4172.30769217
4204.23076917;4201.92307686;4367.17948746;4240.64102564;4763.97436009;2007.94871323;-0.00000896;-0.00000896;4074.48717914;4759.61538573;4340.38461560;4301.79487194;3941.92307630;4202.05128199;4233.84615385;4205.12820506
4208.33333327;4175.38461525;4471.15384664;4238.46153847;4662.82051373;2007.30768759;-0.00000896;-0.00000896;4077.82051248;4726.15384720;4530.76923140;4303.84615399;4469.74359023;4176.28205115;4233.97435898;4205.12820506
4236.02564103;4172.94871781;4304.23076937;4235.89743590;4500.38461594;2003.58973887;-0.00000896;-0.00000896;4109.61538434;4695.38461636;4108.84615357;4302.43589758;4011.28205080;4201.53846147;4234.35897436;4237.94871795
4238.20512821;4172.05128192;4271.92307700;4234.87179488;4469.35897485;2004.10255938;-0.00000896;-0.00000896;4140.51282031;4693.97435995;4073.07692273;4302.30769245;4436.66666709;4201.92307686;4233.97435898;4237.94871795
4237.56410257;4171.92307679;4172.69230756;4235.89743590;4433.71794914;2007.69230297;-0.00000896;-0.00000896;4141.41025621;4667.56410347;4370.89743618;4302.82051296;4070.64102530;4176.28205115;4233.97435898;4237.94871795
4237.43589744;4171.66666653;4103.71794844;4236.41025641;4465.89743639;2036.92307227;-0.00000896;-0.00000896;4141.92307672;4667.43589834;4304.48717963;4303.07692322;3875.89743514;4176.15384602;4233.84615385;4237.94871795
4238.33333334;4174.35897422;3708.97435787;4236.92307693;4075.64102530;2036.92307227;-0.00000896;-0.00000896;4140.38461518;4695.51282149;4042.69230728;4302.05128219;3679.61538344;4201.79487173;4234.10256411;4237.94871795
4238.20512821;4176.02564089;4365.51282079;4237.69230770;4305.25641040;2035.38461073;-0.00000896;-0.00000896;4141.15384595;4694.23077021;4204.35897429;4302.94871809;4175.64102551;4175.51282038;4234.23076923;4237.94871795
4238.84615385;4201.15384609;4338.07692329;4235.12820513;4470.00000049;2009.48717477;-0.00000896;-0.00000896;4136.28205108;4695.12820610;4172.82051269;4306.53846168;4138.33333313;4201.79487173;4209.10256404;4237.94871795
4240.51282052;4201.66666660;4201.41025634;4209.10256404;4140.12820492;2007.82050810;-0.00000896;-0.00000896;4137.94871774;4697.69230867;4069.87179453;4302.69230784;4467.43589793;4202.17948711;4208.33333327;4237.94871795
4240.89743590;4201.28205122;4501.02564159;4208.58974352;4762.82051394;2037.05127740;-0.00000896;-0.00000896;4138.07692287;4695.89743687;4234.61538462;4303.33333348;4044.87179446;4202.69230763;4234.23076923;4237.94871795
4241.28205129;4202.69230763;4398.33333368;4206.66666660;4564.10256480;2008.58973887;-0.00000896;-0.00000896;4138.71794851;4729.48718053;4568.20512890;4302.94871809;4405.38461574;4175.51282038;4209.10256404;4237.94871795
4241.92307693;4202.82051275;4597.43589820;4207.82051275;4565.38461608;2007.82050810;-0.00000896;-0.00000896;4173.33333320;4729.48718053;4497.94871851;4302.30769245;4437.17948760;4175.76923063;4209.10256404;4237.94871795
4241.92307693;4201.53846147;4240.12820513;4207.05128199;4531.28205191;2005.12820041;-0.00000896;-0.00000896;4169.99999986;4700.89743687;4404.23076958;4304.87179501;4174.48717935;4202.94871788;4233.97435898;4237.94871795
4239.48717949;4174.61538448;4302.43589758;4234.35897436;4338.20512842;2006.41025169;-0.00000896;-0.00000896;4173.97435884;4699.10256508;4366.41025669;4302.69230784;4629.61538545;4203.33333327;4233.97435898;4237.94871795
4238.58974359;4173.97435884;4662.82051373;4236.15384616;4859.87179620;2007.30768759;-0.00000896;-0.00000896;4172.69230756;4695.12820610;4306.66666681;4302.94871809;4302.17948732;4203.07692301;4234.35897436;4237.94871795
4236.28205129;4172.17948704;4201.92307686;4237.17948718;4369.61538490;2035.25640560;-0.00000896;-0.00000896;4171.53846140;4697.05128303;4497.82051338;4302.69230784;4398.97435933;4202.82051275;4208.97435891;4237.94871795
4235.38461539;4171.02564089;4530.38461601;4237.17948718;4630.51282135;2038.46153381;229.99999153;-0.00000896;4173.33333320;4695.76923175;4496.66666723;4305.00000014;4467.94871844;4202.69230763;4233.84615385;4237.94871795
4208.84615378;4172.05128192;4369.23076951;4237.05128206;4471.66666716;2042.94871330;229.99999153;-0.00000896;4172.69230756;4695.00000098;4404.10256445;4305.00000014;4596.53846231;4202.43589737;4234.10256411;4205.12820506
4206.66666660;4174.35897422;4434.23076965;4237.30769231;4569.23076993;2041.79486714;229.99999153;-0.00000896;4172.56410243;4663.97435988;4400.00000035;4300.89743604;4107.82051255;4201.79487173;4208.71794865;4205.12820506
4204.74358968;4176.15384602;4370.76923105;4237.05128206;4137.69230749;2035.76922612;229.99999153;-0.00000896;4173.20512807;4665.25641116;4594.87179564;4305.51282066;4565.76923147;4202.82051275;4234.48717949;4205.12820506
4203.58974352;4201.66666660;4272.17948725;4238.46153847;4467.17948767;2037.05127740;1.53845258;-0.00000896;4171.15384602;4665.00000091;4434.10256452;4300.25641040;4405.51282086;4203.58974352;4208.71794865;4205.12820506
4202.56410250;4201.66666660;4336.28205149;4237.43589744;4304.35897450;2035.25640560;-0.00000896;-0.00000896;4142.30769210;4694.74359072;4700.25641123;4303.20512835;4435.12820555;4201.41025634;4208.97435891;4205.12820506
4203.07692301;4202.30769224;4371.66666695;4237.17948718;4598.97435974;2035.64102099;229.99999153;-0.00000896;4142.56410236;4667.30769321;4438.84615427;4303.07692322;4532.94871858;4203.58974352;4208.84615378;4205.12820506
4203.20512814;4201.66666660;4465.25641075;4235.25641026;4369.87179515;2037.69230304;-0.00000896;-0.00000896;4142.30769210;4666.28205219;4635.76923161;4304.74358989;4274.35897443;4202.05128199;4209.10256404;4205.12820506
4203.97435891;4203.71794865;4302.82051296;4234.48717949;4498.33333389;2034.99999535;229.99999153;-0.00000896;4141.79487159;4664.61538552;4400.89743625;4303.84615399;4430.89743632;4201.53846147;4209.10256404;4205.12820506
4204.48717942;4203.58974352;4367.43589772;4208.71794865;4435.00000042;2008.07691836;-0.00000896;-0.00000896;4143.07692287;4693.46153944;4665.38461629;4302.69230784;4366.53846182;4203.20512814;4234.10256411;4205.12820506
4205.25641019;4203.58974352;4471.66666716;4208.33333327;4568.71794942;2034.99999535;229.99999153;-0.00000896;4168.84615371;4695.89743687;4696.15384713;4303.33333348;4564.23076993;4203.07692301;4234.10256411;4205.12820506
4204.74358968;4204.35897429;4467.94871844;4206.53846147;4499.61538518;2036.66666201;-0.00000896;-0.00000896;4169.99999986;4695.76923175;4697.43589841;4301.28205142;4432.94871837;4201.41025634;4208.97435891;4205.12820506
4204.87179481;4205.25641019;4569.48718019;4208.46153840;4565.64102634;2008.20512348;229.99999153;-0.00000896;4168.84615371;4693.71794969;4405.38461574;4303.33333348;4339.48717970;4202.17948711;4234.35897436;4205.12820506
4206.15384609;4204.48717942;4141.41025621;4208.33333327;4463.97435946;2008.07691836;-0.00000896;-0.00000896;4172.17948704;4699.10256508;4501.53846210;4305.00000014;4368.07692336;4201.66666660;4208.84615378;4205.12820506
4207.82051275;4203.20512814;4470.38461587;4233.84615385;4468.71794921;2003.58973887;229.99999153;-0.00000896;4174.48717935;4697.17948816;4464.61538511;4303.07692322;4470.00000049;4201.79487173;4233.97435898;4205.12820506
4207.94871788;4201.41025634;4464.35897485;4234.35897436;4565.00000070;2005.38461066;-0.00000896;-0.00000896;4174.61538448;4693.33333431;4631.02564186;4303.97435912;4596.15384692;4202.56410250;4208.58974352;4205.12820506
4208.07692301;4201.15384609;4238.84615385;4235.64102564;4139.99999980;2007.69230297;229.99999153;-0.00000896;4172.94871781;4668.07692398;4500.51282107;4301.92307707;4304.10256425;4201.53846147;4233.97435898;4205.12820506
4208.07692301;4201.02564096;4499.61538518;4237.43589744;4700.12820610;2009.74358502;-0.00000896;-0.00000896;4168.84615371;4668.33333424;4139.23076903;4302.94871809;4562.56410326;4203.33333327;4208.84615378;4205.12820506
4234.23076923;4201.53846147;4335.12820534;4237.56410257;4367.56410285;2008.46153374;229.99999153;-0.00000896;4168.33333320;4698.71794969;4431.92307734;4303.58974373;4109.10256383;4202.69230763;4233.97435898;4237.94871795
4208.46153840;4201.66666660;4406.02564138;4238.97435898;4634.10256494;2007.30768759;-0.00000896;-0.00000896;4143.33333313;4697.30769328;4367.56410285;4304.23076937;4434.74359016;4202.69230763;4233.84615385;4205.12820506
4233.97435898;4176.15384602;4201.02564096;4237.05128206;4234.35897436;2009.35896964;229.99999153;-0.00000896;4168.84615371;4667.82051373;4534.23076986;4303.46153860;4371.28205156;4202.30769224;4233.84615385;4237.94871795
4208.07692301;4175.64102551;4332.30769252;4236.15384616;4630.51282135;2009.87179015;-0.00000896;-0.00000896;4142.05128185;4667.56410347;4039.74358933;4303.84615399;4436.92307734;4201.92307686;4209.10256404;4205.12820506
4207.94871788;4201.02564096;4137.05128185;4234.74358975;4338.84615406;2036.02563637;229.99999153;-0.00000896;4169.61538448;4665.51282142;4562.94871865;4302.17948732;4270.38461546;4201.53846147;4233.84615385;4205.12820506
4208.33333327;4176.02564089;4365.38461567;4236.02564103;4404.74359009;2034.87179022;-0.00000896;-0.00000896;4169.61538448;4697.94871893;3907.17948649;4302.05128219;4073.84615350;4202.56410250;4235.64102564;4205.12820506
4234.35897436;4201.02564096;4039.87179446;4234.23076923;4171.28205115;2037.17948253;229.99999153;-0.00000896;4142.94871774;4695.25641123;4237.94871795;4305.76923091;4398.58974394;4201.53846147;4234.10256411;4237.94871795
4234.10256411;4175.76923063;4630.12820597;4208.71794865;4469.23076972;2035.25640560;-0.00000896;-0.00000896;4142.82051262;4695.12820610;4170.25641012;4303.71794886;4271.15384623;4202.43589737;4208.07692301;4237.94871795
4233.97435898;4176.28205115;3879.74358898;4206.66666660;4333.33333355;2038.46153381;229.99999153;-0.00000896;4168.97435884;4694.61538559;4268.97435905;4302.82051296;4107.94871767;4201.66666660;4233.97435898;4237.94871795
4209.10256404;4201.92307686;4239.10256411;4206.92307686;4338.84615406;2005.12820041;-0.00000896;-0.00000896;4174.87179474;4695.25641123;4173.07692294;4304.10256425;4367.69230797;4201.92307686;4209.10256404;4205.12820506
4208.71794865;4203.07692301;4339.74358996;4235.25641026;4400.64102599;2002.56409784;229.99999153;-0.00000896;4206.41025634;4698.33333431;4303.97435912;4303.33333348;4338.46153867;4176.02564089;4234.35897436;4205.12820506
4207.05128199;4203.71794865;4168.58974345;4236.15384616;4237.30769231;2004.61537989;-0.00000896;-0.00000896;4203.58974352;4697.30769328;4534.61538524;4301.41025655;4369.35897464;4201.53846147;4208.84615378;4205.12820506
4205.12820506;4201.92307686;4431.15384657;4238.33333334;4695.76923175;2006.02563630;229.99999153;-0.00000896;4204.87179481;4697.05128303;4168.71794858;4301.66666681;4564.10256480;4202.69230763;4233.97435898;4205.12820506
4203.71794865;4175.76923063;4568.58974429;4240.25641026;4535.89743653;2009.35896964;-0.00000896;-0.00000896;4174.23076910;4694.10256508;4535.51282114;4305.64102578;4142.82051262;4202.56410250;4234.48717949;4205.12820506
4202.69230763;4174.99999986;4399.23076958;4239.74358975;4664.87179578;2009.87179015;229.99999153;-0.00000896;4171.28205115;4667.43589834;4602.30769308;4303.84615399;4469.87179536;4201.92307686;4207.82051275;4205.12820506
4201.92307686;4175.89743576;4531.92307755;4238.71794872;4597.94871872;2009.35896964;-0.00000896;-0.00000896;4171.28205115;4695.64102662;4596.79487256;4302.94871809;4467.56410305;4203.33333327;4233.84615385;4205.12820506
4176.15384602;4176.02564089;4270.89743597;4237.82051282;4568.71794942;2005.89743118;-0.00000896;-0.00000896;4142.69230749;4668.46153937;4405.64102599;4304.48717963;4206.79487173;4202.30769224;4234.10256411;4172.30769217
4175.76923063;4175.38461525;4237.56410257;4236.79487180;4071.92307658;2008.33332861;-0.00000896;-0.00000896;4137.82051262;4696.41025739;4300.89743604;4303.46153860;4402.82051317;4201.79487173;4208.97435891;4172.30769217
4201.28205122;4176.28205115;4434.48717991;4236.79487180;4730.00000105;2007.69230297;229.99999153;-0.00000896;4136.41025621;4667.43589834;4141.28205108;4302.56410271;4072.30769196;4203.58974352;4208.58974352;4205.12820506
4203.33333327;4201.79487173;4170.12820499;4236.41025641;4338.46153867;2005.12820041;229.99999153;-0.00000896;4109.87179460;4693.46153944;4529.35897499;4301.41025655;4340.00000021;4201.92307686;4208.58974352;4205.12820506
4205.76923070;4202.30769224;4503.33333389;4235.89743590;4562.17948788;2005.25640554;229.99999153;-0.00000896;4137.43589723;4697.17948816;4503.33333389;4304.23076937;4498.20512876;4205.38461532;4208.71794865;4205.12820506
4207.69230763;4201.02564096;4205.25641019;4236.92307693;4465.51282100;2008.97435425;229.99999153;-0.00000896;4139.48717928;4695.00000098;4568.58974429;4302.30769245;4338.07692329;4202.82051275;4235.12820513;4205.12820506
4207.82051275;4201.41025634;4667.43589834;4236.28205129;4334.23076944;2035.51281586;-0.00000896;-0.00000896;4142.05128185;4667.94871886;4239.61538462;4306.41025655;4697.56410354;4203.58974352;4208.84615378;4205.12820506
4208.20512814;4201.41025634;4269.87179495;4237.94871795;4664.87179578;2009.48717477;-0.00000896;-0.00000896;4169.10256397;4661.66666757;4170.64102551;4301.53846168;4140.38461518;4204.87179481;4233.97435898;4205.12820506
4207.43589737;4176.15384602;4467.05128254;4238.07692308;4466.41025690;2009.99999528;-0.00000896;-0.00000896;4168.84615371;4633.71794956;4337.69230790;4302.05128219;4305.64102578;4204.23076917;4208.58974352;4205.12820506
4207.69230763;4201.79487173;4337.43589765;4238.71794872;4340.12820534;2034.99999535;-0.00000896;-0.00000896;4170.51282038;4634.23077007;4338.58974380;4304.61538476;4500.89743646;4204.23076917;4209.10256404;4205.12820506
4207.17948711;4203.46153840;4201.15384609;4238.46153847;4467.30769280;2039.61537996;-0.00000896;-0.00000896;4142.69230749;4663.84615475;4500.00000056;4303.84615399;4205.12820506;4203.07692301;4208.97435891;4205.12820506
4207.43589737;4204.10256404;4273.07692315;4239.35897436;4335.12820534;2036.28204663;-0.00000896;-0.00000896;4141.92307672;4662.05128296;4202.94871788;4303.97435912;4533.58974422;4169.48717935;4207.17948711;4205.12820506
4207.69230763;4205.38461532;4470.25641075;4238.46153847;4632.30769315;2008.97435425;-0.00000896;-0.00000896;4139.10256390;4664.74359065;4300.89743604;4303.84615399;4335.12820534;4203.97435891;4208.84615378;4205.12820506
4208.33333327;4204.99999993;4501.41025697;4238.71794872;4698.58974457;2007.17948246;-0.00000896;-0.00000896;4137.82051262;4665.38461629;4466.41025690;4304.74358989;4496.79487235;4203.07692301;4233.97435898;4205.12820506
4208.20512814;4205.25641019;4467.69230818;4237.17948718;4629.61538545;2042.43589278;-0.00000896;-0.00000896;4138.71794851;4668.58974450;4595.76923154;4303.58974373;4368.33333362;4202.69230763;4233.84615385;4205.12820506
4208.20512814;4204.10256404;4338.46153867;4233.97435898;4437.43589786;2009.61537989;-0.00000896;-0.00000896;4110.12820485;4666.28205219;4470.89743639;4302.69230784;4567.30769301;4201.28205122;4234.23076923;4205.12820506
4208.84615378;4202.56410250;4307.30769245;4207.17948711;4304.10256425;2006.53845682;-0.00000896;-0.00000896;4137.30769210;4667.69230860;4568.84615454;4302.69230784;4470.76923126;4203.07692301;4208.97435891;4205.12820506
4233.84615385;4202.56410250;4268.33333341;4206.28205122;4432.30769273;2007.69230297;-0.00000896;-0.00000896;4137.94871774;4665.89743680;4366.15384644;4301.92307707;4370.12820541;4176.28205115;4233.97435898;4237.94871795
4207.56410250;4202.82051275;4431.79487222;4207.05128199;4471.28205177;2006.28204656;-0.00000896;-0.00000896;4139.74358954;4663.84615475;4400.12820548;4303.07692322;4602.94871872;4202.17948711;4235.00000000;4205.12820506
4208.97435891;4203.33333327;4599.35897513;4206.66666660;4862.94871927;2008.58973887;-0.00000896;-0.00000896;4141.15384595;4697.17948816;4367.30769259;4302.56410271;4337.05128226;4204.10256404;4233.97435898;4205.12820506
4207.82051275;4203.84615378;4235.00000000;4207.17948711;4365.51282079;2003.97435425;-0.00000896;-0.00000896;4140.89743569;4698.58974457;4566.41025711;4302.05128219;4400.25641061;4201.92307686;4234.35897436;4205.12820506
4208.71794865;4202.94871788;4437.94871837;4207.56410250;4338.84615406;2006.53845682;-0.00000896;-0.00000896;4141.02564082;4695.25641123;4432.56410298;4302.69230784;4599.10256487;4201.92307686;4233.84615385;4205.12820506
4207.30769224;4202.56410250;4369.48717977;4207.17948711;4629.10256494;2009.10255938;-0.00000896;-0.00000896;4139.61538441;4667.69230860;4595.25641102;4302.17948732;4566.66666737;4201.66666660;4233.84615385;4205.12820506
4207.17948711;4202.17948711;4336.79487201;4206.53846147;4267.56410264;2006.53845682;-0.00000896;-0.00000896;4138.71794851;4693.97435995;4403.46153881;4304.48717963;4369.74359003;4201.92307686;4234.10256411;4205.12820506
4206.79487173;4203.46153840;4598.71794949;4208.71794865;4890.51282191;2005.12820041;-0.00000896;-0.00000896;4137.94871774;4700.00000098;4269.74358982;4303.84615399;4661.41025732;4202.82051275;4234.23076923;4205.12820506
4208.33333327;4202.30769224;4305.25641040;4207.69230763;4372.94871823;2003.46153374;-0.00000896;-0.00000896;4140.12820492;4695.76923175;4499.35897492;4301.79487194;4075.51282017;4202.94871788;4209.10256404;4205.12820506
4207.30769224;4201.53846147;4464.48717998;4208.84615378;4634.23077007;2008.33332861;-0.00000896;-0.00000896;4170.51282038;4694.35897534;4368.84615413;4304.35897450;4664.35897527;4202.94871788;4208.97435891;4205.12820506
4206.53846147;4201.41025634;4630.89743674;4234.87179488;4663.07692398;2006.53845682;-0.00000896;-0.00000896;4169.99999986;4666.79487270;4470.89743639;4303.58974373;4467.30769280;4202.56410250;4208.97435891;4205.12820506
4205.89743583;4175.76923063;4602.94871872;4234.23076923;4628.84615468;2008.84614912;-0.00000896;-0.00000896;4168.71794858;4697.43589841;4598.07692385;4299.74358989;4532.56410319;4203.46153840;4208.97435891;4205.12820506
4206.02564096;4174.23076910;4759.61538573;4234.87179488;4832.56410382;2037.69230304;-0.00000896;-0.00000896;4168.84615371;4697.17948816;4434.74359016;4301.02564117;4403.58974394;4201.53846147;4235.64102564;4205.12820506
4204.74358968;4175.38461525;4563.84615454;4208.97435891;4536.53846217;2039.35896971;229.99999153;-0.00000896;4168.46153833;4693.33333431;4601.53846231;4305.00000014;4438.46153888;4201.79487173;4209.10256404;4205.12820506
4204.99999993;4174.99999986;4234.35897436;4235.00000000;4365.12820541;2037.56409791;-0.00000896;-0.00000896;4169.87179474;4663.46153937;4433.58974401;4304.23076937;4272.94871802;4203.84615378;4234.10256411;4205.12820506
4205.25641019;4175.51282038;4401.66666702;4236.41025641;4438.71794914;2034.87179022;-0.00000896;-0.00000896;4142.94871774;4666.02564193;4563.71794942;4303.07692322;4403.46153881;4204.10256404;4208.97435891;4205.12820506
4205.25641019;4201.41025634;4598.46153923;4236.15384616;4826.79487305;2036.92307227;-0.00000896;-0.00000896;4168.46153833;4694.48718046;4430.89743632;4306.92307707;4499.10256466;4202.05128199;4209.10256404;4205.12820506
4206.41025634;4201.66666660;4300.64102578;4237.17948718;4400.76923112;2010.12820041;229.99999153;-0.00000896;4137.56410236;4697.43589841;4597.05128282;4303.84615399;4371.15384644;4202.56410250;4208.97435891;4205.12820506
4207.43589737;4201.02564096;4499.23076979;4239.48717949;4496.92307748;2035.25640560;229.99999153;-0.00000896;4141.53846133;4666.92307783;4464.35897485;4303.07692322;4799.23077042;4202.94871788;4208.97435891;4205.12820506
4208.33333327;4202.30769224;4502.05128261;4238.33333334;4563.46153916;2035.25640560;229.99999153;-0.00000896;4143.46153826;4694.23077021;4661.92307783;4304.23076937;4533.58974422;4202.17948711;4233.84615385;4205.12820506
4208.97435891;4201.92307686;4501.53846210;4239.35897436;4635.38461622;2009.74358502;229.99999153;-0.00000896;4139.61538441;4694.61538559;4470.76923126;4302.17948732;4438.46153888;4202.30769224;4209.10256404;4205.12820506
4234.35897436;4201.41025634;4727.69230874;4237.82051282;4698.71794969;2038.33332868;229.99999153;-0.00000896;4138.33333313;4668.33333424;4499.35897492;4302.30769245;4566.28205198;4202.17948711;4209.10256404;4237.94871795
4209.10256404;4202.05128199;4372.56410285;4236.92307693;4537.30769294;2010.12820041;229.99999153;-0.00000896;4139.48717928;4694.23077021;4333.58974380;4302.43589758;4630.64102648;4201.41025634;4208.58974352;4205.12820506
4234.87179488;4201.66666660;4268.07692315;4236.92307693;4437.43589786;2003.97435425;229.99999153;-0.00000896;4137.05128185;4694.48718046;4405.25641061;4302.43589758;4236.92307693;4203.07692301;4236.15384616;4237.94871795
4235.51282052;4201.53846147;4305.51282066;4236.53846154;4467.05128254;2005.12820041;229.99999153;-0.00000896;4136.41025621;4697.17948816;4501.28205184;4302.17948732;4437.43589786;4203.58974352;4208.71794865;4237.94871795
4235.00000000;4202.17948711;4596.79487256;4236.66666667;4825.25641151;2008.58973887;229.99999153;-0.00000896;4135.64102544;4694.61538559;4301.92307707;4306.28205142;4569.23076993;4201.79487173;4208.97435891;4237.94871795
4235.76923077;4201.79487173;4175.76923063;4236.02564103;4272.05128212;2005.76922605;229.99999153;-0.00000896;4136.53846133;4668.33333424;4732.56410361;4306.41025655;4367.82051310;4203.20512814;4209.10256404;4237.94871795
4235.12820513;4201.79487173;4404.87179522;4236.79487180;4569.10256480;2007.69230297;229.99999153;-0.00000896;4138.71794851;4667.69230860;4239.48717949;4303.33333348;4566.79487249;4203.07692301;4236.28205129;4237.94871795
4235.25641026;4201.92307686;4630.25641109;4236.28205129;4468.46153895;2008.97435425;229.99999153;-0.00000896;4137.43589723;4696.66666764;4601.15384692;4304.10256425;4727.05128310;4202.69230763;4208.97435891;4237.94871795
4235.76923077;4201.41025634;4400.64102599;4235.76923077;4599.23077000;2036.66666201;229.99999153;-0.00000896;4135.76923056;4693.71794969;4405.12820548;4303.97435912;4570.12820583;4202.30769224;4208.20512814;4237.94871795
4236.92307693;4201.92307686;4634.10256494;4208.97435891;4731.28205233;2037.30768766;229.99999153;-0.00000896;4108.33333306;4666.79487270;4562.05128275;4302.43589758;4465.51282100;4203.71794865;4233.84615385;4237.94871795
4237.56410257;4204.74358968;4501.28205184;4208.97435891;4529.74359037;2039.99999535;229.99999153;-0.00000896;4074.48717914;4696.28205226;4366.02564131;4301.02564117;4338.71794893;4202.69230763;4206.28205122;4237.94871795
4240.38461539;4207.56410250;4501.28205184;4206.66666660;4891.02564242;2035.51281586;229.99999153;-0.00000896;4102.82051255;4666.41025732;4370.89743618;4301.79487194;4438.20512863;4205.12820506;4208.84615378;4237.94871795
4268.20512828;4234.23076923;4367.94871823;4204.74358968;4369.61538490;2035.51281586;229.99999153;-0.00000896;4106.53846126;4663.84615475;4371.15384644;4303.46153860;4369.87179515;4203.20512814;4208.97435891;4270.76923084
4269.61538469;4235.38461539;4403.46153881;4204.87179481;4562.56410326;2035.76922612;229.99999153;-0.00000896;4168.71794858;4634.61538545;4463.97435946;4305.64102578;4404.61538497;4203.07692301;4236.79487180;4270.76923084
4266.92307700;4236.53846154;4335.51282073;4203.84615378;4336.66666688;2037.17948253;229.99999153;-0.00000896;4201.15384609;4635.51282135;4534.61538524;4301.28205142;4435.64102606;4202.30769224;4233.97435898;4270.76923084
4237.43589744;4237.30769231;4694.23077021;4205.51282045;4827.05128331;2009.48717477;229.99999153;-0.00000896;4201.53846147;4666.66666757;4371.28205156;4304.10256425;4630.89743674;4201.02564096;4234.48717949;4237.94871795
4234.74358975;4236.53846154;4337.69230790;4205.38461532;4697.17948816;2036.02563637;229.99999153;-0.00000896;4203.33333327;4695.76923175;4465.51282100;4303.46153860;4498.33333389;4201.79487173;4234.35897436;4237.94871795
4206.28205122;4237.17948718;4529.48718012;4207.56410250;4664.48718039;2009.87179015;229.99999153;-0.00000896;4175.89743576;4693.97435995;4530.00000063;4302.94871809;4602.30769308;4201.66666660;4235.38461539;4205.12820506
4203.71794865;4235.89743590;4694.61538559;4208.20512814;4796.02564221;2007.30768759;229.99999153;-0.00000896;4173.20512807;4668.33333424;4307.05128219;4303.46153860;4241.92307693;4203.84615378;4234.35897436;4205.12820506
4176.02564089;4209.10256404;4138.46153826;4235.76923077;4106.41025614;2003.33332861;229.99999153;-0.00000896;4169.87179474;4697.30769328;4627.69230853;4301.28205142;4431.66666709;4202.43589737;4234.23076923;4172.30769217
4175.25641012;4207.82051275;4404.87179522;4236.28205129;4635.00000084;2006.41025169;229.99999153;-0.00000896;4142.82051262;4728.58974464;4205.12820506;4304.61538476;4176.15384602;4201.79487173;4234.23076923;4172.30769217
4174.48717935;4206.53846147;4269.23076930;4237.82051282;4467.17948767;2006.92307220;229.99999153;-0.00000896;4141.53846133;4700.38461636;4304.35897450;4300.12820527;4433.33333375;4202.30769224;4235.51282052;4172.30769217
4201.15384609;4205.89743583;4435.76923119;4238.07692308;4532.05128268;2004.10255938;229.99999153;-0.00000896;4138.33333313;4701.28205226;4299.74358989;4303.97435912;4536.79487242;4202.82051275;4233.97435898;4205.12820506
4203.20512814;4204.48717942;4598.46153923;4237.69230770;4860.00000132;2006.53845682;229.99999153;-0.00000896;4138.07692287;4730.64102669;4464.48717998;4300.89743604;4366.66666695;4202.17948711;4234.35897436;4205.12820506
4205.12820506;4203.46153840;4467.43589793;4239.74358975;4496.66666723;2037.05127740;229.99999153;-0.00000896;4104.87179460;4730.12820617;4504.10256466;4305.25641040;4372.05128233;4203.46153840;4208.58974352;4205.12820506
4235.00000000;4202.82051275;4503.84615441;4239.10256411;4729.23077028;2039.99999535;229.99999153;-0.00000896;4074.74358940;4701.28205226;4369.74359003;4303.46153860;4635.76923161;4202.17948711;4234.48717949;4237.94871795
4239.10256411;4205.12820506;4435.00000042;4240.38461539;4463.71794921;2035.76922612;229.99999153;-0.00000896;4103.84615357;4698.97435995;4340.25641047;4303.58974373;4171.41025628;4202.17948711;4234.10256411;4237.94871795
4241.41025641;4207.82051275;4564.48718019;4240.51282052;4700.89743687;2035.38461073;229.99999153;-0.00000896;4109.10256383;4693.97435995;4433.46153888;4304.48717963;4464.35897485;4203.71794865;4234.23076923;4237.94871795
4241.15384616;4234.23076923;4333.20512842;4239.48717949;4368.20512849;2009.61537989;229.99999153;-0.00000896;4109.74358947;4699.10256508;4564.35897506;4304.10256425;4434.10256452;4202.94871788;4234.87179488;4237.94871795
4241.79487180;4234.48717949;4660.76923168;4238.46153847;4826.28205254;2035.64102099;-0.00000896;-0.00000896;4110.12820485;4698.97435995;4339.48717970;4302.17948732;4532.69230832;4202.69230763;4234.35897436;4237.94871795
4268.07692315;4208.07692301;4368.46153874;4236.92307693;4535.64102627;2038.07691843;-0.00000896;-0.00000896;4138.46153826;4728.20512925;4404.61538497;4301.28205142;4468.58974408;4203.33333327;4237.69230770;4270.76923084
4241.92307693;4206.53846147;4667.30769321;4208.33333327;4891.02564242;2009.87179015;229.99999153;-0.00000896;4135.89743569;4727.82051387;4696.41025739;4303.97435912;4696.41025739;4203.97435891;4234.61538462;4237.94871795
4240.89743590;4204.35897429;4431.79487222;4207.43589737;4668.20512911;2009.10255938;-0.00000896;-0.00000896;4140.38461518;4726.79487284;4304.48717963;4304.23076937;4436.79487222;4203.07692301;4234.48717949;4237.94871795
4240.00000000;4203.20512814;4366.15384644;4206.02564096;4438.46153888;2035.25640560;-0.00000896;-0.00000896;4137.82051262;4731.66666771;4701.41025739;4303.20512835;4434.10256452;4202.05128199;4234.74358975;4237.94871795
4239.10256411;4202.43589737;4437.82051324;4204.99999993;4792.17948836;2036.28204663;-0.00000896;-0.00000896;4139.35897415;4729.74359079;4175.51282038;4301.79487194;4635.12820597;4202.43589737;4207.43589737;4237.94871795
4237.17948718;4202.17948711;4398.84615420;4206.79487173;4470.64102613;2009.61537989;-0.00000896;-0.00000896;4140.25641005;4730.00000105;4503.58974415;4303.33333348;4306.41025655;4203.07692301;4234.74358975;4237.94871795
4237.17948718;4201.15384609;4469.87179536;4205.76923070;4633.58974443;2009.74358502;-0.00000896;-0.00000896;4139.48717928;4729.48718053;4759.10256522;4302.82051296;4533.97435960;4202.82051275;4234.87179488;4237.94871795
4235.64102564;4202.05128199;4563.58974429;4207.30769224;4530.76923140;2006.41025169;-0.00000896;-0.00000896;4142.43589723;4727.94871899;4629.48718032;4303.20512835;4436.02564145;4203.46153840;4208.46153840;4237.94871795
4235.38461539;4175.76923063;4402.17948753;4208.07692301;4496.53846210;2009.99999528;-0.00000896;-0.00000896;4140.12820492;4730.00000105;4562.82051352;4301.92307707;4367.69230797;4202.43589737;4234.48717949;4237.94871795
4235.00000000;4176.28205115;4332.56410278;4234.48717949;4370.12820541;2038.07691843;-0.00000896;-0.00000896;4140.76923056;4730.64102669;4334.61538483;4304.23076937;4337.30769252;4203.07692301;4235.25641026;4237.94871795
4208.97435891;4201.41025634;4270.38461546;4236.66666667;4500.64102620;2035.25640560;-0.00000896;-0.00000896;4141.53846133;4729.35897541;4203.07692301;4302.82051296;4401.15384651;4202.17948711;4234.61538462;4205.12820506
4233.84615385;4202.17948711;4627.94871879;4237.43589744;4568.71794942;2009.35896964;-0.00000896;-0.00000896;4169.74358961;4698.97435995;4471.53846203;4305.25641040;4597.69230846;4202.56410250;4233.97435898;4237.94871795
4207.05128199;4201.02564096;4733.71794976;4236.92307693;4665.25641116;2007.94871323;-0.00000896;-0.00000896;4169.23076910;4727.17948823;4600.51282128;4303.33333348;4628.07692391;4203.20512814;4234.87179488;4205.12820506
4205.38461532;4176.15384602;4496.92307748;4238.20512821;4071.02564068;2008.07691836;-0.00000896;-0.00000896;4171.28205115;4731.66666771;4498.46153902;4302.17948732;4500.76923133;4201.53846147;4235.12820513;4205.12820506
4204.10256404;4175.76923063;4299.87179501;4237.69230770;4569.61538531;2035.12820048;-0.00000896;-0.00000896;4140.89743569;4726.92307797;4565.25641096;4303.84615399;4431.28205170;4204.35897429;4234.87179488;4205.12820506
4203.84615378;4175.25641012;4301.53846168;4237.17948718;4438.07692350;2040.76922612;-0.00000896;-0.00000896;4136.92307672;4698.58974457;4302.43589758;4303.58974373;4335.00000021;4204.10256404;4208.71794865;4205.12820506
4203.97435891;4175.25641012;4371.02564131;4236.66666667;4566.79487249;2034.87179022;-0.00000896;-0.00000896;4140.12820492;4728.58974464;4398.71794907;4303.84615399;4635.00000084;4205.51282045;4234.74358975;4205.12820506
4203.84615378;4175.89743576;4665.76923168;4237.17948718;4925.38461685;2009.87179015;-0.00000896;-0.00000896;4139.10256390;4728.20512925;4464.48717998;4302.05128219;4339.23076944;4204.61538455;4234.74358975;4205.12820506
4203.58974352;4175.38461525;4302.30769245;4238.33333334;4465.38461587;2037.05127740;-0.00000896;-0.00000896;4136.66666646;4726.92307797;4368.58974387;4300.64102578;4271.79487187;4202.82051275;4235.38461539;4205.12820506
4204.10256404;4201.02564096;4431.92307734;4236.79487180;4335.76923098;2035.76922612;-0.00000896;-0.00000896;4137.17948697;4698.46153944;4562.43589813;4304.48717963;4467.82051331;4203.46153840;4234.87179488;4205.12820506
4203.84615378;4176.15384602;4431.92307734;4237.17948718;4563.07692378;2036.15384150;-0.00000896;-0.00000896;4136.41025621;4697.82051380;4531.02564165;4302.17948732;4373.07692336;4203.97435891;4235.12820513;4205.12820506
4202.82051275;4201.53846147;4598.33333410;4237.30769231;4370.51282079;2036.02563637;-0.00000896;-0.00000896;4136.02564082;4700.12820610;4370.38461567;4303.58974373;4438.84615427;4203.58974352;4234.61538462;4205.12820506
4204.23076917;4201.02564096;4137.94871774;4236.28205129;4503.58974415;2008.33332861;-0.00000896;-0.00000896;4109.87179460;4696.15384713;4335.12820534;4303.33333348;4336.15384637;4202.69230763;4234.10256411;4205.12820506
4204.10256404;4201.28205122;4238.33333334;4236.79487180;4301.02564117;2034.87179022;-0.00000896;-0.00000896;4138.07692287;4728.07692412;4531.41025704;4303.71794886;4367.94871823;4204.10256404;4235.00000000;4205.12820506
4202.94871788;4203.20512814;4403.97435933;4237.43589744;4535.00000063;2037.82050817;-0.00000896;-0.00000896;4109.99999973;4700.38461636;4171.92307679;4301.92307707;4501.53846210;4205.76923070;4234.61538462;4205.12820506
4202.43589737;4203.33333327;4534.74359037;4235.51282052;4532.94871858;2039.23076458;-0.00000896;-0.00000896;4110.38461511;4695.64102662;4535.76923140;4302.56410271;4660.64102655;4202.43589737;4234.35897436;4205.12820506
4202.05128199;4203.84615378;4470.00000049;4235.76923077;4664.87179578;2008.71794400;-0.00000896;-0.00000896;4139.61538441;4701.15384713;4335.76923098;4303.07692322;4732.69230874;4203.20512814;4233.97435898;4205.12820506
4176.02564089;4202.94871788;4336.02564124;4235.76923077;4207.43589737;2009.74358502;229.99999153;-0.00000896;4140.64102544;4700.12820610;4466.28205177;4302.43589758;4365.76923105;4201.92307686;4234.48717949;4172.30769217
4175.76923063;4204.35897429;4405.38461574;4235.64102564;4668.46153937;2036.66666201;229.99999153;-0.00000896;4139.74358954;4726.41025746;4141.66666646;4303.07692322;4465.38461587;4203.71794865;4234.48717949;4172.30769217
4201.92307686;4202.82051275;4332.69230790;4237.94871795;4339.74358996;2037.17948253;229.99999153;-0.00000896;4137.69230749;4726.28205233;4499.48718005;4304.87179501;4334.23076944;4202.82051275;4234.61538462;4205.12820506
4175.89743576;4203.97435891;4501.92307748;4237.69230770;4567.94871865;2007.69230297;229.99999153;-0.00000896;4137.94871774;4700.25641123;4531.15384678;4302.69230784;4502.56410312;4203.58974352;4234.61538462;4172.30769217
4176.28205115;4203.20512814;4369.87179515;4238.71794872;4431.79487222;2003.97435425;-0.00000896;-0.00000896;4138.20512800;4730.00000105;4732.56410361;4302.17948732;4464.61538511;4201.79487173;4234.48717949;4172.30769217
4201.41025634;4201.15384609;4794.74359093;4238.20512821;4759.87179599;2008.33332861;6.15383719;-0.00000896;4137.69230749;4728.84615489;4403.20512856;4301.28205142;4337.82051303;4204.23076917;4234.87179488;4205.12820506
4201.28205122;4201.53846147;4338.97435919;4235.76923077;4470.64102613;2038.07691843;229.99999153;-0.00000896;4108.84615357;4726.92307797;4372.56410285;4300.38461553;4333.71794893;4202.56410250;4234.74358975;4205.12820506
4201.53846147;4202.30769224;4530.38461601;4233.84615385;4568.46153916;2038.07691843;6.15383719;-0.00000896;4138.07692287;4728.33333438;4599.48718026;4301.02564117;4431.15384657;4204.99999993;4234.74358975;4205.12820506
4202.05128199;4202.43589737;4437.82051324;4236.28205129;4436.53846196;2009.99999528;229.99999153;-0.00000896;4109.99999973;4700.38461636;4666.02564193;4303.58974373;4438.84615427;4203.46153840;4236.15384616;4205.12820506
4202.69230763;4202.56410250;4431.92307734;4234.61538462;4631.53846238;2036.15384150;6.15383719;-0.00000896;4109.74358947;4700.38461636;4468.58974408;4302.56410271;4334.10256431;4203.71794865;4234.35897436;4205.12820506
4203.20512814;4203.46153840;4238.97435898;4237.05128206;4397.94871830;2009.35896964;229.99999153;-0.00000896;4109.74358947;4698.58974457;4169.48717935;4274.48717956;4467.05128254;4204.74358968;4234.23076923;4205.12820506
4203.07692301;4203.07692301;4467.94871844;4236.02564103;4596.02564179;2035.51281586;6.15383719;-0.00000896;4109.61538434;4698.20512918;4339.35897457;4303.07692322;4237.69230770;4202.94871788;4234.35897436;4205.12820506
4204.48717942;4202.56410250;4404.74359009;4236.02564103;4568.20512890;2036.02563637;229.99999153;-0.00000896;4108.84615357;4697.05128303;4464.87179536;4302.69230784;4371.15384644;4202.94871788;4234.23076923;4205.12820506
4203.58974352;4201.66666660;4405.38461574;4237.30769231;4536.66666730;2037.82050817;6.15383719;-0.00000896;4109.10256383;4700.12820610;4632.82051366;4302.30769245;4471.02564152;4202.43589737;4236.02564103;4205.12820506
4204.99999993;4203.46153840;4596.66666743;4234.87179488;4595.12820590;2034.99999535;229.99999153;-0.00000896;4109.74358947;4699.35897534;4660.64102655;4303.07692322;4433.84615427;4202.43589737;4234.10256411;4205.12820506
4206.02564096;4201.15384609;4599.35897513;4237.56410257;4761.41025753;2036.66666201;6.15383719;-0.00000896;4109.10256383;4699.74359072;4404.87179522;4300.76923091;4239.35897436;4202.69230763;4234.74358975;4205.12820506
4205.76923070;4201.79487173;4234.87179488;4236.15384616;4208.46153840;2010.12820041;229.99999153;-0.00000896;4109.10256383;4700.89743687;4434.61538504;4302.05128219;4139.61538441;4202.94871788;4233.97435898;4205.12820506
4206.53846147;4201.15384609;4470.12820562;4236.41025641;4470.12820562;2008.33332861;6.15383719;-0.00000896;4108.97435870;4701.15384713;4568.71794942;4302.43589758;4498.58974415;4203.33333327;4235.00000000;4205.12820506
4207.17948711;4175.38461525;4437.69230811;4236.41025641;4436.41025683;2008.33332861;229.99999153;-0.00000896;4109.87179460;4729.74359079;4536.92307755;4304.35897450;4536.53846217;4203.58974352;4234.61538462;4205.12820506
4207.30769224;4175.38461525;4566.53846224;4236.79487180;4499.23076979;2009.61537989;6.15383719;-0.00000896;4106.66666639;4730.76923182;4436.66666709;4302.56410271;4792.17948836;4203.33333327;4235.76923077;4205.12820506
4207.56410250;4175.25641012;4405.12820548;4235.25641026;4597.05128282;2035.12820048;229.99999153;-0.00000896;4106.41025614;4730.76923182;4338.71794893;4302.43589758;4438.33333375;4205.25641019;4234.61538462;4205.12820506
4207.82051275;4175.76923063;4403.97435933;4234.48717949;4434.48717991;2035.76922612;6.15383719;-0.00000896;4105.76923050;4726.15384720;4304.35897450;4301.41025655;4332.94871816;4202.43589737;4233.84615385;4205.12820506
4208.20512814;4201.41025634;4693.58974457;4233.97435898;4795.64102683;2006.28204656;229.99999153;-0.00000896;4136.02564082;4694.23077021;4529.61538524;4302.30769245;4436.92307734;4202.69230763;4234.10256411;4205.12820506
4207.43589737;4176.02564089;4503.97435953;4233.97435898;4633.58974443;2007.56409784;6.15383719;-0.00000896;4110.12820485;4734.10256515;4399.10256445;4302.05128219;4434.74359016;4203.84615378;4234.35897436;4205.12820506
4206.41025634;4201.15384609;4400.76923112;4234.87179488;4405.38461574;2035.25640560;229.99999153;-0.00000896;4137.43589723;4701.02564200;4861.92307825;4303.20512835;4333.20512842;4202.43589737;4209.10256404;4205.12820506
4206.15384609;4175.64102551;4532.69230832;4235.00000000;4529.74359037;2036.66666201;6.15383719;-0.00000896;4110.64102537;4699.35897534;4497.43589800;4304.23076937;4502.82051338;4202.56410250;4234.61538462;4205.12820506
4205.64102558;4201.15384609;4333.33333355;4236.15384616;4533.58974422;2036.53845689;229.99999153;-0.00000896;4136.02564082;4700.51282149;4339.87179508;4300.89743604;4302.30769245;4202.94871788;4234.61538462;4205.12820506
4205.51282045;4201.79487173;4499.87179543;4236.15384616;4465.12820562;2035.38461073;6.15383719;-0.00000896;4109.61538434;4693.71794969;4401.92307727;4302.82051296;4632.30769315;4203.20512814;4234.10256411;4205.12820506
4204.87179481;4176.28205115;4497.17948774;4237.17948718;4826.66666792;2009.61537989;229.99999153;-0.00000896;4136.53846133;4696.28205226;4402.05128240;4302.43589758;4634.35897520;4203.84615378;4234.23076923;4205.12820506
4204.74358968;4201.28205122;4598.97435974;4237.05128206;4302.17948732;2036.28204663;6.15383719;-0.00000896;4136.53846133;4696.92307790;4402.56410292;4305.12820527;4662.17948809;4202.56410250;4234.48717949;4205.12820506
4204.23076917;4202.82051275;4175.51282038;4236.53846154;4597.69230846;2036.02563637;229.99999153;-0.00000896;4109.35897408;4696.92307790;4240.89743590;4304.61538476;4334.23076944;4202.82051275;4234.61538462;4205.12820506
4204.48717942;4202.43589737;4432.69230811;4235.38461539;4433.71794914;2036.41025176;6.15383719;-0.00000896;4109.48717921;4696.41025739;4372.82051310;4304.23076937;4633.33333417;4204.48717942;4233.97435898;4205.12820506
4204.23076917;4201.79487173;4531.92307755;4236.79487180;4694.35897534;2009.87179015;229.99999153;-0.00000896;4107.17948691;4695.51282149;4500.12820569;4302.69230784;4272.30769238;4203.97435891;4234.23076923;4205.12820506
4205.64102558;4202.94871788;4208.20512814;4235.00000000;4234.48717949;2035.76922612;-0.00000896;-0.00000896;4106.92307665;4699.61538559;4436.41025683;4305.51282066;4366.15384644;4202.05128199;4234.23076923;4205.12820506
4206.66666660;4202.43589737;4403.20512856;4234.61538462;4398.71794907;2036.79486714;-0.00000896;-0.00000896;4106.53846126;4698.46153944;4238.97435898;4301.66666681;4535.25641089;4204.48717942;4208.97435891;4205.12820506
4207.69230763;4201.41025634;4661.02564193;4208.97435891;4498.71794928;2035.76922612;-0.00000896;-0.00000896;4106.92307665;4700.76923175;4503.33333389;4302.82051296;4562.56410326;4204.99999993;4234.74358975;4205.12820506
4208.07692301;4202.82051275;4172.43589730;4209.10256404;4208.97435891;2035.38461073;229.99999153;-0.00000896;4109.35897408;4700.51282149;4173.71794858;4304.87179501;4467.05128254;4203.58974352;4233.84615385;4205.12820506
4208.97435891;4202.17948711;4565.89743660;4209.10256404;4464.10256459;2008.71794400;229.99999153;-0.00000896;4108.71794844;4699.23077021;4503.33333389;4301.79487194;4438.71794914;4203.84615378;4237.17948718;4205.12820506
4234.35897436;4201.28205122;4371.28205156;4208.84615378;4760.64102676;2006.28204656;229.99999153;-0.00000896;4136.15384595;4700.25641123;4241.02564103;4300.64102578;4667.82051373;4204.61538455;4234.48717949;4237.94871795
4233.84615385;4201.53846147;4468.46153895;4234.48717949;4431.79487222;2034.87179022;229.99999153;-0.00000896;4110.64102537;4695.64102662;4564.23076993;4274.61538469;4368.84615413;4204.99999993;4209.10256404;4237.94871795
4207.69230763;4201.92307686;4271.53846161;4235.64102564;4497.69230825;2039.99999535;-0.00000896;-0.00000896;4110.25640998;4698.46153944;4399.74359009;4304.87179501;4432.17948760;4204.87179481;4234.10256411;4205.12820506
4209.10256404;4201.79487173;4436.66666709;4235.12820513;4536.79487242;2035.25640560;-0.00000896;-0.00000896;4110.64102537;4699.10256508;4729.10256515;4301.53846168;4467.43589793;4202.56410250;4236.02564103;4205.12820506
4234.61538462;4201.15384609;4401.66666702;4208.84615378;4143.46153826;2008.07691836;-0.00000896;-0.00000896;4136.28205108;4696.53846252;4401.92307727;4301.92307707;4467.43589793;4203.46153840;4234.48717949;4237.94871795
4208.58974352;4201.15384609;4400.00000035;4234.10256411;4567.56410326;2006.41025169;-0.00000896;-0.00000896;4110.38461511;4698.58974457;4438.20512863;4301.66666681;4404.35897471;4203.20512814;4234.48717949;4205.12820506
4208.33333327;4176.28205115;4437.94871837;4208.07692301;4663.84615475;2035.25640560;-0.00000896;-0.00000896;4109.23076896;4697.17948816;4337.82051303;4300.64102578;4531.79487242;4205.25641019;4234.23076923;4205.12820506
4207.94871788;4201.02564096;4368.84615413;4208.33333327;4464.23076972;2009.35896964;-0.00000896;-0.00000896;4109.74358947;4700.00000098;4333.97435919;4302.82051296;4437.30769273;4205.89743583;4236.66666667;4205.12820506
4208.07692301;4202.05128199;4562.94871865;4233.97435898;4831.92307818;2008.58973887;-0.00000896;-0.00000896;4136.66666646;4699.87179585;4404.61538497;4302.82051296;4273.71794879;4204.23076917;4234.74358975;4205.12820506
4207.94871788;4203.20512814;4241.79487180;4208.71794865;4236.53846154;2036.15384150;-0.00000896;-0.00000896;4136.66666646;4695.51282149;4404.61538497;4303.71794886;4402.30769266;4203.07692301;4234.48717949;4205.12820506
4206.28205122;4202.69230763;4372.69230797;4235.12820513;4433.97435940;2036.02563637;-0.00000896;-0.00000896;4137.30769210;4695.64102662;4503.58974415;4302.56410271;4498.71794928;4203.33333327;4208.58974352;4205.12820506
4206.53846147;4203.33333327;4536.79487242;4234.61538462;4471.15384664;2035.89743125;-0.00000896;-0.00000896;4136.92307672;4726.53846258;4564.48718019;4301.53846168;4668.07692398;4203.46153840;4234.74358975;4205.12820506
4207.05128199;4202.94871788;4073.97435863;4235.00000000;4307.05128219;2034.99999535;-0.00000896;-0.00000896;4136.92307672;4699.48718046;4368.97435926;4304.48717963;4334.35897457;4203.84615378;4234.23076923;4205.12820506
4206.53846147;4203.58974352;4338.84615406;4234.74358975;4337.43589765;2039.99999535;-0.00000896;-0.00000896;4135.89743569;4696.66666764;4469.48717998;4302.82051296;4567.69230839;4204.87179481;4234.74358975;4205.12820506
4207.05128199;4202.43589737;4564.35897506;4208.58974352;4764.87179599;2009.87179015;-0.00000896;-0.00000896;4135.64102544;4696.02564200;4273.20512828;4302.82051296;4042.17948677;4203.07692301;4234.23076923;4205.12820506
4207.56410250;4202.82051275;4108.71794844;4208.33333327;4301.79487194;2036.15384150;-0.00000896;-0.00000896;4138.33333313;4728.84615489;4403.58974394;4303.58974373;4470.38461587;4203.46153840;4234.61538462;4205.12820506
4206.02564096;4202.43589737;4469.48717998;4235.12820513;4566.53846224;2039.10255945;-0.00000896;-0.00000896;4138.33333313;4697.69230867;4272.17948725;4303.33333348;4400.38461574;4204.48717942;4234.10256411;4205.12820506
4206.53846147;4202.56410250;4304.87179501;4234.23076923;4597.30769308;2037.56409791;-0.00000896;-0.00000896;4138.20512800;4698.97435995;4437.69230811;4303.58974373;4597.30769308;4204.48717942;4234.10256411;4205.12820506
4205.25641019;4204.48717942;4567.30769301;4236.28205129;4470.00000049;2008.33332861;-0.00000896;-0.00000896;4137.30769210;4699.35897534;4175.76923063;4304.10256425;4402.94871830;4205.12820506;4234.74358975;4205.12820506
4205.51282045;4202.56410250;4371.53846182;4236.02564103;4172.43589730;2035.38461073;-0.00000896;-0.00000896;4137.69230749;4697.43589841;4531.92307755;4301.15384630;4469.23076972;4204.74358968;4208.58974352;4205.12820506
4205.64102558;4202.82051275;4137.17948697;4235.25641026;4402.56410292;2034.99999535;-0.00000896;-0.00000896;4138.71794851;4701.15384713;4305.51282066;4304.10256425;4203.58974352;4202.69230763;4234.74358975;4205.12820506
4205.89743583;4203.20512814;4335.12820534;4236.92307693;4501.92307748;2008.97435425;-0.00000896;-0.00000896;4137.17948697;4701.28205226;4371.02564131;4303.58974373;4370.25641054;4204.87179481;4234.35897436;4205.12820506
4205.51282045;4201.92307686;4434.87179529;4237.82051282;4535.89743653;2035.64102099;-0.00000896;-0.00000896;4140.64102544;4698.84615482;4307.05128219;4302.43589758;4533.97435960;4205.25641019;4234.35897436;4205.12820506
4202.43589737;4176.02564089;4534.23076986;4236.79487180;4732.69230874;2039.35896971;-0.00000896;-0.00000896;4141.92307672;4696.66666764;4434.35897478;4303.97435912;4202.43589737;4203.20512814;4235.76923077;4205.12820506
4176.15384602;4201.28205122;4370.25641054;4235.38461539;4660.51282142;2036.79486714;-0.00000896;-0.00000896;4136.79487159;4697.43589841;4627.69230853;4301.79487194;4339.10256431;4203.97435891;4234.10256411;4172.30769217
4175.38461525;4201.28205122;4103.84615357;4235.00000000;4205.51282045;2003.71794400;-0.00000896;-0.00000896;4139.23076903;4726.41025746;4338.84615406;4304.74358989;4301.15384630;4204.99999993;4234.35897436;4172.30769217
4174.48717935;4175.51282038;4305.12820527;4235.25641026;4600.89743667;2004.99999528;229.99999153;-0.00000896;4135.51282031;4728.97436002;4369.87179515;4302.30769245;4305.51282066;4203.97435891;4234.35897436;4172.30769217
4173.46153833;4174.10256397;4208.97435891;4237.30769231;4203.97435891;2008.97435425;-0.00000896;-0.00000896;4107.56410229;4701.41025739;4434.48717991;4302.56410271;4532.69230832;4205.25641019;4234.35897436;4172.30769217
4175.51282038;4172.82051269;4602.69230846;4237.17948718;4798.97436016;2005.38461066;-0.00000896;-0.00000896;4104.10256383;4729.61538566;4207.56410250;4305.38461553;4136.15384595;4203.97435891;4234.35897436;4172.30769217
4202.05128199;4173.71794858;4172.56410243;4238.58974359;4337.56410278;2035.64102099;2.43588848;-0.00000896;4077.30769196;4699.10256508;4465.12820562;4301.66666681;4471.28205177;4205.12820506;4234.35897436;4205.12820506
4206.15384609;4173.33333320;4533.20512883;4237.94871795;4496.92307748;2009.35896964;229.99999153;-0.00000896;4104.23076896;4701.02564200;4405.12820548;4302.69230784;4304.61538476;4205.25641019;4233.97435898;4205.12820506
4208.20512814;4173.33333320;4601.53846231;4237.30769231;4763.07692419;2037.30768766;229.99999153;-0.00000896;4077.17948684;4698.84615482;4499.61538518;4304.35897450;4470.64102613;4204.35897429;4233.97435898;4205.12820506
4234.61538462;4173.33333320;4596.53846231;4236.92307693;4307.56410271;2035.51281586;229.99999153;-0.00000896;4102.94871767;4667.69230860;4595.89743667;4303.58974373;4433.84615427;4204.61538455;4207.94871788;4237.94871795
4236.66666667;4174.10256397;4433.33333375;4235.00000000;4667.94871886;2035.12820048;229.99999153;-0.00000896;4102.82051255;4698.84615482;4267.43589751;4302.69230784;4367.43589772;4204.10256404;4209.10256404;4237.94871795
4238.71794872;4174.35897422;4399.87179522;4235.64102564;4496.66666723;2034.87179022;229.99999153;-0.00000896;4106.79487152;4668.33333424;4431.53846196;4301.79487194;4237.82051282;4204.74358968;4234.10256411;4237.94871795
4240.00000000;4173.97435884;4601.15384692;4234.87179488;4664.74359065;2037.56409791;229.99999153;-0.00000896;4109.35897408;4667.82051373;4464.23076972;4301.53846168;4432.94871837;4206.02564096;4234.35897436;4237.94871795
4239.74358975;4174.10256397;4695.00000098;4234.23076923;4698.84615482;2035.12820048;229.99999153;-0.00000896;4138.07692287;4664.23077014;4471.02564152;4303.33333348;4534.35897499;4204.10256404;4207.82051275;4237.94871795
4239.23076923;4174.61538448;4365.76923105;4234.10256411;4565.89743660;2040.38461073;229.99999153;-0.00000896;4136.15384595;4694.10256508;4334.74358996;4302.43589758;4793.84615503;4206.53846147;4209.10256404;4237.94871795
4238.20512821;4174.61538448;4471.02564152;4208.58974352;4792.69230888;2034.99999535;229.99999153;-0.00000896;4137.56410236;4694.10256508;4366.53846182;4301.53846168;4435.25641068;4203.33333327;4208.33333327;4237.94871795
4236.15384616;4174.61538448;4534.61538524;4207.30769224;4431.53846196;2037.05127740;229.99999153;-0.00000896;4136.15384595;4665.76923168;4371.79487208;4302.69230784;4562.43589813;4205.51282045;4233.97435898;4237.94871795
4208.97435891;4175.76923063;4564.10256480;4207.94871788;4863.20512953;2034.99999535;229.99999153;-0.00000896;4109.61538434;4694.87179585;4531.15384678;4302.17948732;4598.46153923;4203.07692301;4234.35897436;4205.12820506
4209.10256404;4202.56410250;4337.30769252;4207.56410250;4204.74358968;2009.99999528;229.99999153;-0.00000896;4136.15384595;4666.92307783;4176.28205115;4302.94871809;4599.48718026;4206.02564096;4233.84615385;4205.12820506
4208.58974352;4202.94871788;4567.56410326;4207.17948711;4929.74359121;2006.41025169;229.99999153;-0.00000896;4137.05128185;4693.97435995;4335.00000021;4303.20512835;4205.25641019;4204.87179481;4209.10256404;4205.12820506
4207.30769224;4201.41025634;4432.43589786;4234.10256411;4333.07692329;2005.38461066;229.99999153;-0.00000896;4138.20512800;4667.82051373;4371.41025669;4304.74358989;4365.76923105;4205.51282045;4208.58974352;4205.12820506
4206.92307686;4202.43589737;4600.25641102;4234.61538462;4701.28205226;2008.07691836;229.99999153;-0.00000896;4136.53846133;4693.33333431;4532.56410319;4303.58974373;4436.02564145;4203.97435891;4233.97435898;4205.12820506
4206.02564096;4204.10256404;4305.25641040;4236.41025641;4367.94871823;2038.07691843;229.99999153;-0.00000896;4108.46153819;4666.92307783;4103.71794844;4302.17948732;4239.23076923;4203.97435891;4208.97435891;4205.12820506
4208.07692301;4203.20512814;4731.15384720;4234.61538462;4894.10256550;2006.02563630;229.99999153;-0.00000896;4135.89743569;4693.84615482;4467.05128254;4302.56410271;4272.82051289;4205.89743583;4233.84615385;4205.12820506
4207.56410250;4204.10256404;4009.61538413;4236.15384616;4140.12820492;2007.82050810;229.99999153;-0.00000896;4137.43589723;4694.23077021;4533.58974422;4303.71794886;4371.15384644;4205.12820506;4236.53846154;4205.12820506
4207.17948711;4204.10256404;4405.12820548;4236.92307693;4431.92307734;2009.48717477;229.99999153;-0.00000896;4135.64102544;4699.48718046;4499.61538518;4301.15384630;4400.89743625;4205.76923070;4233.97435898;4205.12820506
4206.41025634;4204.48717942;4536.92307755;4238.07692308;4569.48718019;2008.07691836;229.99999153;-0.00000896;4110.25640998;4694.48718046;4566.66666737;4301.53846168;4596.79487256;4204.87179481;4208.84615378;4205.12820506
4206.15384609;4204.10256404;4370.64102592;4237.82051282;4631.41025725;2008.46153374;229.99999153;-0.00000896;4110.12820485;4696.92307790;4365.76923105;4304.35897450;4500.12820569;4205.89743583;4234.23076923;4205.12820506
4206.92307686;4202.05128199;4401.02564138;4237.56410257;4467.05128254;2009.61537989;229.99999153;-0.00000896;4137.69230749;4695.38461636;4307.56410271;4302.69230784;4666.79487270;4204.48717942;4236.53846154;4205.12820506
4206.28205122;4201.92307686;4567.30769301;4237.94871795;4825.51282177;2008.84614912;229.99999153;-0.00000896;4109.87179460;4694.23077021;4240.12820513;4303.71794886;4102.94871767;4206.92307686;4234.61538462;4205.12820506
4207.17948711;4176.02564089;4306.41025655;4237.05128206;4404.48717984;2008.20512348;229.99999153;-0.00000896;4136.66666646;4699.10256508;4433.71794914;4304.10256425;4431.28205170;4203.84615378;4234.10256411;4205.12820506
4205.25641019;4176.15384602;4533.71794935;4237.69230770;4858.33333466;2036.15384150;229.99999153;-0.00000896;4109.61538434;4698.20512918;4568.20512890;4305.12820527;4366.15384644;4205.12820506;4208.46153840;4205.12820506
4205.38461532;4175.51282038;4272.94871802;4236.53846154;4498.46153902;2035.89743125;229.99999153;-0.00000896;4107.69230742;4696.28205226;4301.02564117;4302.30769245;4596.66666743;4204.48717942;4234.23076923;4205.12820506
4204.48717942;4201.41025634;4728.46153951;4238.20512821;4892.82051421;2005.38461066;229.99999153;-0.00000896;4106.79487152;4694.10256508;4372.94871823;4302.56410271;4267.94871802;4204.10256404;4234.10256411;4205.12820506
4205.25641019;4174.74358961;4467.17948767;4237.17948718;4436.79487222;2005.51281579;229.99999153;-0.00000896;4107.17948691;4695.64102662;4398.07692343;4302.56410271;4307.17948732;4205.12820506;4234.35897436;4205.12820506
4206.66666660;4174.10256397;4437.56410298;4237.17948718;4694.61538559;2037.69230304;229.99999153;-0.00000896;4106.53846126;4694.87179585;4438.07692350;4303.84615399;4400.64102599;4205.51282045;4234.35897436;4205.12820506
4206.15384609;4174.87179474;4367.30769259;4237.82051282;4469.87179536;2036.28204663;229.99999153;-0.00000896;4105.25640998;4693.84615482;4271.41025648;4301.15384630;4405.38461574;4204.10256404;4233.97435898;4205.12820506
4206.02564096;4201.02564096;4663.33333424;4237.05128206;4891.02564242;2009.48717477;229.99999153;-0.00000896;4105.76923050;4667.69230860;4437.30769273;4303.71794886;4337.30769252;4204.23076917;4233.84615385;4205.12820506
4206.02564096;4202.05128199;4470.38461587;4235.12820513;4403.97435933;2009.61537989;229.99999153;-0.00000896;4108.46153819;4695.51282149;4467.43589793;4303.58974373;4369.35897464;4204.23076917;4209.10256404;4205.12820506
4205.51282045;4201.79487173;4399.10256445;4235.89743590;4569.10256480;2008.46153374;229.99999153;-0.00000896;4109.74358947;4662.94871886;4367.43589772;4302.56410271;4534.61538524;4205.12820506;4208.46153840;4205.12820506
4206.15384609;4201.92307686;4335.00000021;4235.64102564;4566.41025711;2008.46153374;-0.00000896;-0.00000896;4107.82051255;4666.02564193;4464.10256459;4302.43589758;4239.87179488;4204.10256404;4233.97435898;4205.12820506
4205.89743583;4201.66666660;4563.20512890;4235.64102564;4698.97435995;2009.99999528;-0.00000896;-0.00000896;4107.94871767;4695.38461636;4400.12820548;4302.56410271;4403.20512856;4205.51282045;4208.71794865;4205.12820506
4205.64102558;4202.30769224;4569.61538531;4235.64102564;4865.12820645;2035.38461073;229.99999153;-0.00000896;4106.02564075;4666.41025732;4466.92307741;4302.82051296;4466.53846203;4205.51282045;4234.10256411;4205.12820506
4206.02564096;4202.43589737;4332.94871816;4233.84615385;3979.35897381;2009.48717477;-0.00000896;-0.00000896;4108.46153819;4668.58974450;4500.76923133;4302.05128219;4333.97435919;4203.97435891;4209.10256404;4205.12820506
4205.12820506;4202.17948711;4307.17948732;4208.84615378;4632.94871879;2007.43589271;-0.00000896;-0.00000896;4108.84615357;4668.33333424;4140.12820492;4301.28205142;4471.28205177;4204.48717942;4235.64102564;4205.12820506
4203.46153840;4204.35897429;4434.35897478;4208.33333327;4436.28205170;2007.56409784;-0.00000896;-0.00000896;4108.84615357;4695.89743687;4434.35897478;4303.84615399;4568.84615454;4205.12820506;4234.10256411;4205.12820506
4202.69230763;4203.33333327;4568.07692378;4209.10256404;4864.23077055;2009.99999528;-0.00000896;-0.00000896;4135.76923056;4666.53846245;4433.84615427;4306.15384630;4634.48718032;4203.58974352;4234.23076923;4205.12820506
4201.66666660;4203.07692301;4471.15384664;4235.25641026;4402.82051317;2007.05127733;-0.00000896;-0.00000896;4108.97435870;4668.33333424;4696.28205226;4303.84615399;4402.30769266;4205.25641019;4208.97435891;4205.12820506
4202.30769224;4202.17948711;4465.25641075;4235.51282052;4726.53846258;2008.97435425;-0.00000896;-0.00000896;4109.48717921;4695.00000098;4434.35897478;4302.17948732;4601.28205205;4206.02564096;4208.33333327;4205.12820506
4202.69230763;4203.46153840;4398.97435933;4236.41025641;4497.69230825;2008.97435425;-0.00000896;-0.00000896;4107.05128178;4695.76923175;4401.53846189;4304.10256425;4566.28205198;4204.48717942;4234.35897436;4205.12820506
4202.94871788;4203.07692301;4437.17948760;4236.41025641;4437.94871837;2036.15384150;-0.00000896;-0.00000896;4106.66666639;4668.20512911;4435.89743632;4304.61538476;4630.64102648;4205.12820506;4209.10256404;4205.12820506
4202.43589737;4203.07692301;4367.82051310;4236.15384616;4433.20512863;2035.38461073;-0.00000896;-0.00000896;4106.28205101;4667.30769321;4535.76923140;4304.10256425;4402.56410292;4203.33333327;4234.23076923;4205.12820506
4203.07692301;4202.56410250;4405.00000035;4236.41025641;4661.28205219;2034.99999535;-0.00000896;-0.00000896;4108.20512793;4694.23077021;4272.69230777;4301.66666681;4597.05128282;4203.71794865;4233.97435898;4205.12820506
4203.07692301;4202.56410250;4404.61538497;4235.38461539;4337.17948739;2034.87179022;-0.00000896;-0.00000896;4107.56410229;4667.94871886;4367.17948746;4302.94871809;4399.48717984;4206.28205122;4234.10256411;4205.12820506
4203.46153840;4201.53846147;4468.20512870;4235.64102564;4464.74359023;2037.43589278;-0.00000896;-0.00000896;4108.58974332;4666.41025732;4504.10256466;4304.74358989;4597.82051359;4204.48717942;4234.10256411;4205.12820506
4203.58974352;4202.56410250;4366.66666695;4235.89743590;4598.71794949;2009.99999528;-0.00000896;-0.00000896;4108.84615357;4667.43589834;4501.53846210;4304.61538476;4532.56410319;4202.69230763;4207.82051275;4205.12820506
4202.94871788;4202.69230763;4400.51282086;4235.89743590;4373.07692336;2006.79486707;-0.00000896;-0.00000896;4110.25640998;4696.66666764;4267.69230777;4302.56410271;4501.41025697;4206.02564096;4233.84615385;4205.12820506
4202.82051275;4202.05128199;4600.25641102;4237.69230770;4826.02564228;2005.76922605;-0.00000896;-0.00000896;4109.87179460;4694.23077021;4301.79487194;4302.94871809;4139.87179467;4204.35897429;4208.46153840;4205.12820506
4202.56410250;4176.02564089;4110.64102537;4237.82051282;4301.53846168;2035.64102099;-0.00000896;-0.00000896;4107.94871767;4666.02564193;4531.28205191;4303.33333348;4431.79487222;4204.74358968;4209.10256404;4205.12820506
4203.20512814;4175.64102551;4503.33333389;4237.82051282;4562.69230839;2006.92307220;-0.00000896;-0.00000896;4106.92307665;4667.05128296;4726.92307797;4301.53846168;4438.20512863;4205.12820506;4241.92307693;4205.12820506
4203.71794865;4175.76923063;4336.53846175;4237.05128206;4371.02564131;2035.12820048;-0.00000896;-0.00000896;4105.12820485;4697.82051380;4664.61538552;4303.84615399;4369.74359003;4206.28205122;4234.35897436;4205.12820506
4202.05128199;4201.79487173;4731.15384720;4237.82051282;4831.02564228;2008.07691836;-0.00000896;-0.00000896;4106.15384588;4694.61538559;4403.33333368;4303.07692322;4299.74358989;4203.84615378;4234.23076923;4205.12820506
4202.69230763;4201.15384609;4533.84615448;4238.20512821;4497.05128261;2007.94871323;-0.00000896;-0.00000896;4108.20512793;4667.69230860;4431.28205170;4306.15384630;4402.56410292;4204.61538455;4208.84615378;4205.12820506
4202.43589737;4175.89743576;4304.74358989;4238.46153847;4662.17948809;2006.66666195;-0.00000896;-0.00000896;4105.38461511;4696.02564200;4432.30769273;4301.92307707;4431.92307734;4204.10256404;4235.89743590;4205.12820506
4201.28205122;4175.51282038;4662.69230860;4238.71794872;4924.87179633;2035.51281586;-0.00000896;-0.00000896;4104.99999973;4665.76923168;4599.48718026;4304.35897450;4861.92307825;4203.07692301;4234.23076923;4205.12820506
4202.43589737;4175.76923063;4398.58974394;4236.66666667;4405.00000035;2036.41025176;-0.00000896;-0.00000896;4104.35897408;4665.64102655;4274.61538469;4301.28205142;4597.69230846;4204.61538455;4208.97435891;4205.12820506
4202.05128199;4175.64102551;4436.79487222;4236.79487180;4858.46153979;2007.30768759;-0.00000896;-0.00000896;4103.58974332;4665.64102655;4465.64102613;4303.20512835;4726.92307797;4203.84615378;4234.74358975;4205.12820506
4202.17948711;4201.79487173;4434.87179529;4234.35897436;4171.53846140;2006.41025169;-0.00000896;-0.00000896;4105.38461511;4662.69230860;4106.02564075;4303.97435912;4271.28205136;4204.61538455;4234.10256411;4205.12820506
4176.02564089;4201.79487173;4499.10256466;4235.64102564;4799.23077042;2035.25640560;229.99999153;-0.00000896;4104.61538434;4665.64102655;4535.12820576;4301.92307707;4596.41025718;4204.74358968;4235.12820513;4172.30769217
4202.17948711;4201.92307686;4465.89743639;4234.61538462;4372.69230797;2008.71794400;229.99999153;-0.00000896;4103.46153819;4666.66666757;4306.66666681;4301.66666681;4597.30769308;4205.89743583;4233.84615385;4205.12820506
4202.05128199;4201.79487173;4464.35897485;4234.74358975;4437.94871837;2008.46153374;229.99999153;-0.00000896;4103.20512793;4666.92307783;4661.92307783;4305.89743604;4435.64102606;4206.02564096;4234.10256411;4205.12820506
4203.58974352;4202.56410250;4501.15384671;4234.61538462;4600.89743667;2005.38461066;229.99999153;-0.00000896;4106.41025614;4668.07692398;4433.58974401;4303.71794886;4273.33333341;4203.58974352;4233.97435898;4205.12820506
4203.84615378;4201.15384609;4434.74359016;4235.25641026;4562.69230839;2035.51281586;-0.00000896;-0.00000896;4106.15384588;4668.33333424;4430.76923119;4305.25641040;4399.74359009;4204.87179481;4209.10256404;4205.12820506
4204.74358968;4203.46153840;4435.51282093;4234.10256411;4570.12820583;2036.41025176;0.76922181;-0.00000896;4103.84615357;4667.30769321;4431.15384657;4302.94871809;4435.64102606;4205.25641019;4233.84615385;4205.12820506
4204.74358968;4203.20512814;4336.28205149;4234.23076923;4336.53846175;2035.76922612;229.99999153;-0.00000896;4108.71794844;4695.12820610;4300.25641040;4304.10256425;4367.30769259;4203.97435891;4208.84615378;4205.12820506
4204.35897429;4203.58974352;4434.48717991;4233.97435898;4765.38461650;2035.12820048;0.76922181;-0.00000896;4135.51282031;4667.17948809;4303.84615399;4303.33333348;4634.48718032;4204.99999993;4235.38461539;4205.12820506
4202.94871788;4203.71794865;4403.58974394;4233.97435898;4435.64102606;2010.12820041;229.99999153;-0.00000896;4107.94871767;4666.15384706;4405.51282086;4300.00000014;4169.48717935;4203.07692301;4233.84615385;4205.12820506
4202.94871788;4203.20512814;4435.64102606;4236.15384616;4598.20512897;2006.41025169;0.76922181;-0.00000896;4107.30769203;4667.17948809;4598.97435974;4303.71794886;4464.35897485;4206.28205122;4236.28205129;4205.12820506
4202.69230763;4203.84615378;4562.05128275;4234.87179488;4728.07692412;2006.92307220;229.99999153;-0.00000896;4106.79487152;4696.28205226;4504.48718005;4303.71794886;4497.69230825;4204.35897429;4234.10256411;4205.12820506
4202.94871788;4202.82051275;4602.05128282;4235.76923077;4793.71794990;2007.94871323;0.76922181;-0.00000896;4105.25640998;4693.46153944;4370.12820541;4301.53846168;4302.30769245;4202.69230763;4233.97435898;4205.12820506
4203.71794865;4201.79487173;4727.82051387;4234.61538462;4825.76923202;2036.02563637;229.99999153;-0.00000896;4103.58974332;4693.33333431;4466.66666716;4304.87179501;4404.74359009;4204.23076917;4233.84615385;4205.12820506
4203.97435891;4202.69230763;4234.61538462;4208.33333327;4103.97435870;2034.87179022;0.76922181;-0.00000896;4105.25640998;4667.43589834;4463.58974408;4302.43589758;4337.56410278;4204.87179481;4209.10256404;4205.12820506
4204.99999993;4202.43589737;4237.30769231;4208.84615378;4502.94871851;2006.53845682;229.99999153;-0.00000896;4104.87179460;4665.89743680;4365.38461567;4304.48717963;4339.35897457;4202.82051275;4208.97435891;4205.12820506
4205.64102558;4202.05128199;4401.15384651;4209.10256404;4533.71794935;2007.56409784;0.76922181;-0.00000896;4109.35897408;4668.58974450;4401.92307727;4301.92307707;4404.74359009;4204.10256404;4208.71794865;4205.12820506
4205.25641019;4202.43589737;4601.02564179;4234.48717949;4795.25641144;2008.58973887;229.99999153;-0.00000896;4108.97435870;4694.74359072;4499.35897492;4304.48717963;4334.87179508;4204.10256404;4233.84615385;4205.12820506
4206.15384609;4201.92307686;4303.46153860;4235.51282052;4366.79487208;2035.51281586;0.76922181;-0.00000896;4108.20512793;4667.30769321;4435.76923119;4302.05128219;4268.71794879;4206.28205122;4234.10256411;4205.12820506
4206.66666660;4201.53846147;4496.66666723;4235.89743590;4799.48718067;2034.99999535;229.99999153;-0.00000896;4109.35897408;4694.35897534;4338.33333355;4303.84615399;4562.82051352;4204.74358968;4233.84615385;4205.12820506
4204.87179481;4203.58974352;4338.46153867;4235.38461539;4403.97435933;2008.97435425;0.76922181;-0.00000896;4107.05128178;4696.15384713;4333.46153867;4302.69230784;4169.10256397;4206.66666660;4234.23076923;4205.12820506
4204.74358968;4202.05128199;4438.58974401;4234.10256411;4701.02564200;2010.12820041;229.99999153;-0.00000896;4109.48717921;4666.66666757;4430.89743632;4302.56410271;4405.25641061;4203.97435891;4206.28205122;4205.12820506
4205.12820506;4201.79487173;4306.53846168;4234.10256411;4299.74358989;2008.84614912;0.76922181;-0.00000896;4107.17948691;4663.97435988;4469.10256459;4301.53846168;4435.25641068;4203.84615378;4208.58974352;4205.12820506
4204.48717942;4202.17948711;4466.28205177;4235.12820513;4863.33333466;2036.15384150;229.99999153;-0.00000896;4107.43589716;4664.87179578;4235.25641026;4301.53846168;4498.97435953;4206.15384609;4209.10256404;4205.12820506
4203.97435891;4202.82051275;4563.84615454;4235.38461539;4372.43589772;2039.61537996;0.76922181;-0.00000896;4106.92307665;4696.92307790;4601.66666743;4302.94871809;4432.30769273;4203.07692301;4234.10256411;4205.12820506
4205.12820506;4203.46153840;4569.48718019;4234.35897436;4829.48718074;2008.58973887;229.99999153;-0.00000896;4107.94871767;4693.46153944;4465.00000049;4301.92307707;4596.28205205;4205.25641019;4207.56410250;4205.12820506
4206.02564096;4203.20512814;4403.84615420;4208.20512814;4534.87179550;2006.41025169;0.76922181;-0.00000896;4105.51282024;4667.94871886;4373.07692336;4301.28205142;4597.30769308;4203.46153840;4208.71794865;4205.12820506
4206.92307686;4201.02564096;4568.20512890;4208.84615378;4797.82051401;2005.89743118;229.99999153;-0.00000896;4107.56410229;4665.64102655;4436.41025683;4304.48717963;4300.25641040;4203.84615378;4235.76923077;4205.12820506
4205.12820506;4202.05128199;4238.97435898;4207.43589737;4365.25641054;2004.61537989;0.76922181;-0.00000896;4108.97435870;4694.23077021;4567.94871865;4301.53846168;4402.05128240;4204.87179481;4233.84615385;4205.12820506
4207.05128199;4201.41025634;4438.46153888;4207.82051275;4372.69230797;2007.30768759;229.99999153;-0.00000896;4110.25640998;4668.46153937;4504.10256466;4304.23076937;4595.89743667;4203.84615378;4234.74358975;4205.12820506
4205.89743583;4202.56410250;4503.33333389;4208.20512814;4566.15384685;2006.02563630;0.76922181;-0.00000896;4136.02564082;4665.25641116;4730.51282156;4303.97435912;4497.56410312;4205.12820506;4209.10256404;4205.12820506
4204.23076917;4202.69230763;4530.12820576;4234.48717949;4634.61538545;2005.64102092;229.99999153;-0.00000896;4136.79487159;4695.00000098;4432.05128247;4304.61538476;4335.76923098;4203.20512814;4234.10256411;4205.12820506
4203.46153840;4201.53846147;4334.74358996;4236.53846154;4333.71794893;2007.94871323;0.76922181;-0.00000896;4136.41025621;4667.05128296;4403.58974394;4304.10256425;4464.48717998;4204.10256404;4207.94871788;4205.12820506
4204.61538455;4202.56410250;4365.12820541;4235.76923077;4467.05128254;2007.69230297;229.99999153;-0.00000896;4110.38461511;4695.25641123;4431.15384657;4301.92307707;4597.43589820;4204.61538455;4233.84615385;4205.12820506
4203.71794865;4202.56410250;4532.43589807;4236.53846154;4564.48718019;2007.43589271;-0.00000896;-0.00000896;4109.74358947;4667.05128296;4504.10256466;4303.97435912;4598.58974436;4204.87179481;4233.84615385;4205.12820506
4203.58974352;4201.41025634;4206.66666660;4235.12820513;4397.94871830;2005.76922605;-0.00000896;-0.00000896;4109.74358947;4667.82051373;4171.28205115;4303.58974373;4465.25641075;4205.25641019;4208.71794865;4205.12820506
4203.07692301;4201.02564096;4535.12820576;4234.87179488;4464.87179536;2008.33332861;5.12819617;-0.00000896;4110.25640998;4695.64102662;4339.74358996;4303.07692322;4498.33333389;4204.35897429;4208.97435891;4205.12820506
4202.56410250;4174.61538448;4431.92307734;4235.38461539;4731.41025746;2010.12820041;229.99999153;-0.00000896;4108.20512793;4694.23077021;4270.38461546;4301.66666681;4602.69230846;4204.10256404;4233.84615385;4205.12820506
4203.07692301;4175.76923063;4332.94871816;4208.97435891;4267.17948725;2034.99999535;229.99999153;-0.00000896;4109.61538434;4665.51282142;4602.17948795;4304.48717963;4335.76923098;4202.69230763;4208.84615378;4205.12820506
4203.71794865;4175.76923063;4207.69230763;4236.15384616;4400.38461574;2036.02563637;229.99999153;-0.00000896;4108.07692280;4662.30769321;4403.97435933;4304.35897450;4402.43589779;4204.87179481;4209.10256404;4205.12820506
4203.58974352;4175.25641012;4500.89743646;4234.74358975;4432.43589786;2008.58973887;229.99999153;-0.00000896;4109.23076896;4694.10256508;4464.23076972;4305.00000014;4467.69230818;4204.23076917;4233.84615385;4205.12820506
4203.46153840;4175.64102551;4402.56410292;4235.51282052;4696.15384713;2009.61537989;-0.00000896;-0.00000896;4108.84615357;4666.28205219;4335.89743611;4302.56410271;4634.35897520;4204.61538455;4208.84615378;4205.12820506
4203.71794865;4201.79487173;4563.97435967;4234.87179488;4205.12820506;2036.53845689;-0.00000896;-0.00000896;4107.43589716;4665.38461629;4403.46153881;4303.58974373;4602.30769308;4204.35897429;4208.71794865;4205.12820506
4204.99999993;4201.15384609;4137.43589723;4234.23076923;4470.12820562;2035.76922612;-0.00000896;-0.00000896;4107.05128178;4635.51282135;4305.64102578;4303.71794886;4238.33333334;4204.61538455;4205.89743583;4205.12820506
4205.64102558;4202.56410250;4405.64102599;4208.97435891;4434.87179529;2007.82050810;-0.00000896;-0.00000896;4109.35897408;4663.97435988;4366.28205156;4302.56410271;4432.82051324;4205.12820506;4208.84615378;4205.12820506
4206.28205122;4201.41025634;4630.12820597;4234.23076923;4863.07692440;2005.76922605;-0.00000896;-0.00000896;4109.23076896;4694.74359072;4437.43589786;4302.43589758;4366.28205156;4203.20512814;4234.10256411;4205.12820506
4206.41025634;4176.28205115;4307.17948732;4208.58974352;4500.38461594;2007.56409784;-0.00000896;-0.00000896;4136.02564082;4663.84615475;4602.94871872;4304.10256425;4405.00000035;4204.74358968;4209.10256404;4205.12820506
4206.15384609;4201.53846147;4371.79487208;4234.35897436;4405.64102599;2008.46153374;-0.00000896;-0.00000896;4110.64102537;4662.94871886;4367.17948746;4300.51282066;4536.02564165;4176.02564089;4209.10256404;4205.12820506
4205.64102558;4202.43589737;4597.05128282;4234.61538462;4433.46153888;2006.15384143;-0.00000896;-0.00000896;4110.64102537;4665.89743680;4468.20512870;4305.64102578;4502.43589800;4204.23076917;4208.97435891;4205.12820506
4205.89743583;4176.28205115;4661.15384706;4234.74358975;4826.79487305;2007.82050810;-0.00000896;-0.00000896;4136.15384595;4666.92307783;4365.89743618;4305.89743604;4602.43589820;4204.48717942;4207.94871788;4205.12820506
4205.25641019;4201.28205122;4400.25641061;4234.35897436;4303.84615399;2009.35896964;-0.00000896;-0.00000896;4109.99999973;4663.20512911;4208.84615378;4304.74358989;4631.02564186;4203.97435891;4208.97435891;4205.12820506
4204.87179481;4201.15384609;4698.07692405;4235.51282052;4860.25641158;2009.74358502;-0.00000896;-0.00000896;4108.33333306;4660.64102655;4303.33333348;4304.61538476;4272.05128212;4203.71794865;4208.58974352;4205.12820506
4204.35897429;4202.17948711;4432.17948760;4208.97435891;4500.38461594;2007.43589271;-0.00000896;-0.00000896;4136.92307672;4668.33333424;4435.25641068;4304.74358989;4274.35897443;4204.74358968;4233.97435898;4205.12820506
4204.99999993;4202.05128199;4498.71794928;4234.48717949;4503.58974415;2009.74358502;-0.00000896;-0.00000896;4135.51282031;4664.74359065;4630.64102648;4302.56410271;4500.12820569;4204.23076917;4234.48717949;4205.12820506
4204.23076917;4202.82051275;4400.00000035;4234.74358975;4502.05128261;2035.25640560;-0.00000896;-0.00000896;4137.05128185;4661.15384706;4665.12820604;4302.43589758;4307.30769245;4205.38461532;4208.97435891;4205.12820506
4203.71794865;4203.20512814;4201.41025634;4234.61538462;4142.30769210;2008.07691836;-0.00000896;-0.00000896;4136.15384595;4665.64102655;4565.00000070;4303.71794886;4501.15384671;4204.74358968;4208.84615378;4205.12820506
4203.33333327;4203.07692301;4600.12820590;4234.74358975;4864.23077055;2008.71794400;-0.00000896;-0.00000896;4108.84615357;4667.43589834;4175.25641012;4302.94871809;4135.38461518;4202.94871788;4235.00000000;4205.12820506
4205.12820506;4202.17948711;4076.41025607;4235.38461539;4332.94871816;2010.12820041;-0.00000896;-0.00000896;4109.87179460;4665.64102655;4465.76923126;4303.71794886;4400.25641061;4204.35897429;4233.97435898;4205.12820506
4204.23076917;4203.97435891;4404.35897471;4236.66666667;4532.30769294;2008.46153374;-0.00000896;-0.00000896;4110.25640998;4665.12820604;4536.92307755;4303.07692322;4431.92307734;4204.35897429;4234.61538462;4205.12820506
4204.87179481;4203.97435891;4464.10256459;4236.79487180;4499.10256466;2009.74358502;-0.00000896;-0.00000896;4108.71794844;4662.94871886;4301.92307707;4304.23076937;4567.56410326;4203.71794865;4208.71794865;4205.12820506
4205.64102558;4205.64102558;4235.64102564;4239.35897436;4464.23076972;2036.02563637;-0.00000896;-0.00000896;4108.20512793;4664.87179578;4700.64102662;4302.17948732;4306.41025655;4204.87179481;4208.46153840;4205.12820506
4207.56410250;4204.48717942;4405.64102599;4240.51282052;4499.74359030;1975.89743111;-0.00000896;-0.00000896;4135.51282031;4695.64102662;4269.48717956;4305.12820527;4596.92307769;4203.84615378;4208.71794865;4205.12820506
4207.30769224;4203.20512814;4664.48718039;4266.66666674;4598.58974436;2003.33332861;-0.00000896;-0.00000896;4110.38461511;4666.66666757;4497.43589800;4305.38461553;4401.15384651;4201.79487173;4208.84615378;4205.12820506
4206.15384609;4202.17948711;4499.23076979;4240.25641026;4727.17948823;2035.64102099;-0.00000896;-0.00000896;4136.28205108;4668.20512911;4498.58974415;4302.82051296;4503.46153902;4203.58974352;4208.97435891;4205.12820506
4205.51282045;4202.43589737;4731.66666771;4239.48717949;4731.02564207;2039.99999535;-0.00000896;-0.00000896;4106.53846126;4664.87179578;4334.74358996;4302.56410271;4201.92307686;4204.23076917;4208.20512814;4205.12820506
4204.48717942;4203.84615378;4170.12820499;4237.17948718;4272.30769238;2035.76922612;229.99999153;-0.00000896;4135.89743569;4662.17948809;4401.28205163;4304.35897450;4339.61538483;4204.87179481;4236.41025641;4205.12820506
4203.58974352;4207.30769224;4333.07692329;4238.46153847;4501.79487235;1975.76922598;-0.00000896;-0.00000896;4076.28205094;4696.92307790;4529.23076986;4303.07692322;4300.00000014;4203.58974352;4234.10256411;4205.12820506
4203.97435891;4206.53846147;4435.64102606;4241.28205129;4469.61538511;2002.43589271;-0.00000896;-0.00000896;4106.28205101;4668.58974450;4434.74359016;4304.23076937;4470.25641075;4206.15384609;4208.97435891;4205.12820506
4203.58974352;4207.56410250;4372.30769259;4267.17948725;4463.97435946;2002.30768759;-0.00000896;-0.00000896;4075.64102530;4726.79487284;4602.56410333;4303.33333348;4270.38461546;4204.74358968;4233.84615385;4205.12820506
4204.35897429;4205.76923070;4337.43589765;4266.92307700;4269.87179495;2005.51281579;229.99999153;-0.00000896;4102.69230742;4696.79487277;4271.02564110;4305.12820527;4496.41025697;4203.46153840;4208.07692301;4205.12820506
4203.71794865;4204.10256404;4471.53846203;4240.89743590;4766.66666778;2004.61537989;229.99999153;-0.00000896;4074.61538427;4694.48718046;4334.87179508;4305.76923091;4104.61538434;4204.87179481;4234.23076923;4205.12820506
4203.71794865;4203.46153840;4044.35897395;4238.33333334;4301.41025655;2037.05127740;229.99999153;-0.00000896;4077.05128171;4663.84615475;4431.15384657;4301.66666681;4366.02564131;4204.35897429;4209.10256404;4205.12820506
4202.43589737;4203.46153840;4465.89743639;4235.89743590;4598.33333410;2036.53845689;229.99999153;-0.00000896;4103.33333306;4693.33333431;4531.02564165;4302.05128219;4370.25641054;4204.10256404;4233.97435898;4205.12820506
4203.58974352;4201.92307686;4437.56410298;4235.00000000;4529.23076986;2007.30768759;229.99999153;-0.00000896;4076.41025607;4668.33333424;4565.51282121;4305.25641040;4537.30769294;4205.51282045;4233.97435898;4205.12820506
4207.17948711;4173.58974345;4730.12820617;4234.87179488;4956.15384769;2006.02563630;229.99999153;-0.00000896;4106.79487152;4664.10256501;4531.41025704;4303.97435912;4398.71794907;4204.23076917;4208.97435891;4205.12820506
4206.66666660;4174.48717935;4171.15384602;4237.69230770;4234.87179488;2039.74358509;229.99999153;-0.00000896;4170.38461525;4631.28205212;4566.92307762;4305.38461553;4438.07692350;4203.07692301;4233.84615385;4205.12820506
4204.74358968;4202.56410250;4597.69230846;4241.53846154;4661.28205219;2006.92307220;229.99999153;-0.00000896;4171.66666653;4634.10256494;4660.76923168;4303.84615399;4733.84615489;4202.82051275;4234.35897436;4205.12820506
4204.74358968;4202.94871788;4468.97435946;4270.64102571;4531.79487242;2037.69230304;229.99999153;-0.00000896;4108.97435870;4634.10256494;4268.46153853;4301.28205142;4535.00000063;4203.58974352;4233.97435898;4205.12820506
4203.20512814;4202.82051275;4695.64102662;4268.71794879;4859.87179620;2038.46153381;229.99999153;-0.00000896;4110.64102537;4663.33333424;4601.79487256;4304.74358989;4828.84615510;4203.46153840;4207.94871788;4205.12820506
4202.56410250;4203.07692301;4206.53846147;4268.71794879;4501.02564159;2009.99999528;229.99999153;-0.00000896;4136.66666646;4666.28205219;4201.66666660;4302.56410271;4077.17948684;4204.74358968;4208.97435891;4205.12820506
4203.46153840;4176.15384602;4438.33333375;4269.23076930;4503.33333389;2036.28204663;229.99999153;-0.00000896;4106.02564075;4663.20512911;4405.25641061;4303.97435912;4433.84615427;4205.25641019;4208.84615378;4205.12820506
4202.82051275;4201.02564096;4307.30769245;4266.66666674;4438.84615427;2041.02563637;229.99999153;-0.00000896;4109.23076896;4663.46153937;4299.48717963;4303.58974373;4207.56410250;4205.51282045;4208.71794865;4205.12820506
4203.20512814;4174.48717935;4434.10256452;4240.38461539;4530.51282114;2005.89743118;229.99999153;-0.00000896;4106.66666639;4662.05128296;4530.38461601;4301.92307707;4566.92307762;4205.38461532;4234.61538462;4205.12820506
4202.43589737;4174.10256397;4173.20512807;4266.79487187;4233.84615385;2006.79486707;229.99999153;-0.00000896;4135.38461518;4667.17948809;4102.82051255;4303.71794886;4338.97435919;4206.41025634;4209.10256404;4205.12820506
4203.20512814;4172.56410243;4828.58974484;4238.71794872;4436.02564145;2040.12820048;229.99999153;-0.00000896;4103.07692280;4665.12820604;4695.00000098;4304.87179501;4565.00000070;4204.87179481;4209.10256404;4205.12820506
4204.48717942;4168.71794858;4340.00000021;4234.35897436;4665.25641116;2041.53845689;229.99999153;-0.00000896;4107.69230742;4662.69230860;4504.35897492;4304.48717963;4273.58974366;4204.35897429;4234.23076923;4205.12820506
4208.07692301;4139.35897415;4602.17948795;4235.51282052;4699.10256508;1973.71794393;229.99999153;-0.00000896;4106.79487152;4666.53846245;4466.53846203;4305.00000014;4203.20512814;4205.25641019;4207.94871788;4205.12820506
4236.53846154;4109.23076896;4301.15384630;4239.61538462;4697.43589841;2006.53845682;229.99999153;-0.00000896;4044.99999959;4661.02564193;4565.12820583;4301.92307707;4431.53846196;4205.64102558;4208.33333327;4237.94871795
4240.38461539;4107.43589716;4668.07692398;4238.07692308;4796.41025760;2074.74358516;229.99999153;-0.00000896;4044.48717907;4598.97435974;4335.38461560;4302.94871809;4267.69230777;4203.97435891;4208.20512814;4237.94871795
4236.66666667;4139.35897415;4070.76923043;4203.97435891;4401.41025676;2102.30768779;229.99999153;-0.00000896;3973.84615329;4596.41025718;4273.46153853;4303.71794886;4207.43589737;4203.46153840;4205.64102558;4237.94871795
4208.33333327;4174.35897422;4208.58974352;4142.56410236;4399.48717984;2009.23076451;229.99999153;-0.00000896;4011.15384567;4599.35897513;4266.66666674;4303.97435912;4307.17948732;4204.61538455;4208.58974352;4204.99999993
4207.82051275;4206.02564096;4565.64102634;4169.74358961;4534.10256473;1937.17948232;229.99999153;-0.00000896;4074.35897402;4665.89743680;4468.46153895;4302.05128219;4569.61538531;4201.41025634;4208.58974352;4204.99999993
4238.71794872;4202.94871788;3941.15384553;4205.25641019;3946.02564040;1907.17948225;229.99999153;-0.00000896;4070.64102530;4633.58974443;4139.74358954;4304.10256425;4240.00000000;4204.74358968;4208.46153840;4237.94871795
4238.71794872;4203.46153840;4335.12820534;4240.12820513;4335.64102585;1971.02563623;229.99999153;-0.00000896;4040.51282010;4662.43589834;3939.10256348;4304.23076937;4498.20512876;4204.35897429;4206.92307686;4237.94871795
4240.76923077;4176.15384602;3808.84615295;4239.74358975;4240.89743590;2007.94871323;229.99999153;-0.00000896;4040.76923036;4632.82051366;4435.76923119;4304.35897450;3909.87179418;4204.87179481;4208.07692301;4237.94871795
4238.71794872;4201.79487173;4536.79487242;4207.82051275;4434.87179529;2067.69230311;229.99999153;-0.00000896;4073.58974325;4632.94871879;4171.15384602;4305.38461553;4601.79487256;4204.87179481;4234.35897436;4237.94871795
4238.33333334;4203.46153840;4169.74358961;4206.79487173;4336.92307714;2002.43589271;229.99999153;-0.00000896;4105.38461511;4633.07692391;4370.00000028;4302.05128219;4333.20512842;4206.15384609;4208.20512814;4237.94871795
4235.00000000;4203.84615378;4173.07692294;4234.10256411;4109.99999973;1972.30768752;229.99999153;-0.00000896;4077.82051248;4661.53846245;4399.74359009;4305.89743604;4367.56410285;4207.94871788;4207.43589737;4237.94871795
4207.94871788;4204.48717942;4365.38461567;4208.33333327;4601.41025718;2005.12820041;229.99999153;-0.00000896;4107.30769203;4635.38461622;4208.58974352;4303.97435912;4431.02564145;4203.07692301;4208.33333327;4205.12820506
4204.35897429;4205.51282045;4402.56410292;4208.58974352;4467.05128254;2038.71794407;229.99999153;-0.00000896;4136.28205108;4632.30769315;4470.64102613;4302.05128219;4203.07692301;4203.97435891;4208.84615378;4205.12820506
4175.12820499;4206.79487173;4401.28205163;4233.97435898;4498.20512876;2041.02563637;229.99999153;-0.00000896;4169.87179474;4628.84615468;4435.25641068;4304.48717963;4498.97435953;4206.79487173;4208.46153840;4172.30769217
4173.97435884;4233.97435898;4663.58974450;4238.58974359;4662.43589834;2009.35896964;229.99999153;-0.00000896;4169.61538448;4628.84615468;4661.79487270;4301.53846168;4466.92307741;4204.61538455;4208.46153840;4172.30769217
4171.15384602;4234.48717949;4403.84615420;4270.76923084;4596.79487256;2004.99999528;70.38460656;-0.00000896;4172.05128192;4629.10256494;4631.41025725;4306.02564117;4567.43589813;4203.58974352;4208.33333327;4172.30769217
4170.89743576;4206.53846147;4530.00000063;4273.84615392;4694.61538559;2037.30768766;39.35896547;-0.00000896;4141.92307672;4632.94871879;4629.10256494;4302.56410271;4400.76923112;4204.87179481;4208.46153840;4172.30769217
4169.35897422;4201.15384609;4694.74359072;4270.89743597;4990.89743750;2039.23076458;229.99999153;-0.00000896;4168.33333320;4633.33333417;4696.02564200;4303.58974373;4662.69230860;4204.99999993;4208.84615378;4172.30769217
4170.76923063;4172.17948704;4503.07692364;4274.48717956;4827.05128331;2002.69230297;39.35896547;-0.00000896;4138.46153826;4666.28205219;4732.05128310;4302.94871809;4564.87179557;4203.84615378;4208.46153840;4172.30769217
4173.58974345;4143.46153826;4499.48718005;4272.30769238;4595.51282128;2041.79486714;-0.00000896;-0.00000896;4070.51282017;4628.07692391;4339.74358996;4303.58974373;4502.43589800;4205.76923070;4206.79487173;4172.30769217
4172.17948704;4169.10256397;4635.25641109;4267.94871802;4733.20512925;2074.74358516;-0.00000896;-0.00000896;4103.71794844;4635.38461622;4534.61538524;4304.87179501;4696.79487277;4206.41025634;4208.71794865;4172.30769217
4174.61538448;4169.48717935;4500.89743646;4240.25641026;4824.87179613;2038.71794407;-0.00000896;-0.00000896;4077.56410222;4633.46153930;4562.69230839;4305.00000014;4471.53846203;4204.48717942;4208.07692301;4172.30769217
4203.33333327;4169.48717935;4501.66666723;4239.87179488;4634.87179571;2009.99999528;-0.00000896;-0.00000896;3978.84615329;4662.05128296;4405.38461574;4304.61538476;4371.02564131;4205.89743583;4208.71794865;4205.12820506
4206.15384609;4168.58974345;4332.56410278;4208.58974352;4961.66666820;2040.12820048;-0.00000896;-0.00000896;3977.56410201;4599.10256487;4596.02564179;4304.35897450;4301.41025655;4203.84615378;4208.84615378;4205.12820506
4202.56410250;4205.25641019;4631.79487263;4202.69230763;4665.38461629;2034.99999535;-0.00000896;-0.00000896;4042.94871754;4630.64102648;4534.87179550;4304.61538476;4668.07692398;4204.87179481;4208.84615378;4205.12820506
4203.58974352;4233.84615385;4469.23076972;4205.76923070;4764.23077035;1971.66666188;-0.00000896;-0.00000896;4070.64102530;4666.28205219;4303.71794886;4303.33333348;4170.12820499;4205.89743583;4208.46153840;4205.12820506
4205.38461532;4207.94871788;4041.28205087;4236.15384616;4037.30769189;1944.35896950;-0.00000896;-0.00000896;4008.33333285;4662.43589834;4434.74359016;4306.02564117;4168.46153833;4205.51282045;4207.69230763;4205.12820506
4207.30769224;4206.41025634;4204.10256404;4237.30769231;4370.89743618;1976.79486700;-0.00000896;-0.00000896;3979.35897381;4663.07692398;3874.23076847;4302.56410271;4108.33333306;4204.48717942;4208.46153840;4205.12820506
4236.53846154;4204.23076917;4336.02564124;4238.97435898;4498.84615441;1971.66666188;-0.00000896;-0.00000896;4006.79487131;4666.41025732;4399.74359009;4302.82051296;4270.76923084;4205.51282045;4235.12820513;4237.94871795
4238.20512821;4202.43589737;4268.46153853;4237.82051282;4568.33333403;2034.87179022;-0.00000896;-0.00000896;4007.30769183;4663.97435988;4339.48717970;4303.84615399;4267.56410264;4204.48717942;4208.46153840;4237.94871795
4240.51282052;4201.41025634;4306.41025655;4208.20512814;4335.25641047;2009.48717477;-0.00000896;-0.00000896;4038.71794830;4662.30769321;4663.58974450;4301.53846168;4405.25641061;4204.61538455;4208.33333327;4237.94871795
4238.46153847;4202.56410250;4437.30769273;4205.76923070;4696.15384713;2005.38461066;-0.00000896;-0.00000896;4039.10256369;4664.23077014;4300.51282066;4304.10256425;4206.92307686;4204.87179481;4208.58974352;4237.94871795
4237.17948718;4203.33333327;4335.25641047;4204.87179481;4372.17948746;2008.71794400;-0.00000896;-0.00000896;4071.41025607;4633.58974443;4399.23076958;4305.51282066;4171.15384602;4205.89743583;4208.71794865;4237.94871795
4235.51282052;4205.12820506;4235.38461539;4203.58974352;4596.28205205;1975.64102085;-0.00000896;-0.00000896;4109.35897408;4631.79487263;4434.74359016;4304.61538476;4367.30769259;4206.02564096;4208.58974352;4237.94871795
4207.43589737;4208.20512814;4241.15384616;4238.46153847;4236.66666667;2007.43589271;-0.00000896;-0.00000896;4135.89743569;4632.43589827;4398.97435933;4304.61538476;4398.46153881;4205.51282045;4208.33333327;4205.12820506
4203.20512814;4236.66666667;4301.15384630;4267.94871802;4630.25641109;2040.89743125;-0.00000896;-0.00000896;4169.35897422;4628.71794956;4207.82051275;4305.64102578;3974.35897381;4204.48717942;4207.94871788;4205.12820506
4174.87179474;4237.69230770;4595.25641102;4271.66666674;4665.51282142;2038.46153381;-0.00000896;-0.00000896;4136.79487159;4629.87179571;4433.33333375;4300.89743604;4464.10256459;4203.97435891;4208.97435891;4172.30769217
4172.82051269;4237.17948718;4532.69230832;4273.71794879;4633.84615468;2039.10255945;-0.00000896;-0.00000896;4077.30769196;4662.69230860;4434.87179529;4304.48717963;4665.25641116;4205.89743583;4207.82051275;4172.30769217
4172.82051269;4234.10256411;4466.79487229;4269.74358982;4536.28205191;2071.02563644;-0.00000896;-0.00000896;4136.02564082;4632.05128289;4730.25641130;4303.46153860;4332.43589765;4204.48717942;4209.10256404;4172.30769217
4170.64102551;4233.84615385;4569.48718019;4241.92307693;5026.92307859;2069.10255952;-0.00000896;-0.00000896;4138.84615364;4631.79487263;4471.53846203;4304.87179501;4891.79487319;4204.74358968;4234.23076923;4172.30769217
4168.46153833;4208.20512814;4729.35897541;4240.51282052;4503.33333389;2037.94871330;-0.00000896;-0.00000896;4106.53846126;4663.20512911;4696.79487277;4302.94871809;4635.38461622;4205.89743583;4208.58974352;4172.30769217
4172.05128192;4203.58974352;4467.56410305;4269.23076930;4503.33333389;1972.05127726;-0.00000896;-0.00000896;4135.38461518;4667.30769321;4398.84615420;4303.97435912;4534.87179550;4204.99999993;4234.10256411;4172.30769217
4201.15384609;4170.38461525;4532.43589807;4305.89743604;4370.00000028;1940.25640540;-0.00000896;-0.00000896;4103.07692280;4728.71794976;4268.20512828;4304.23076937;4234.61538462;4204.74358968;4233.97435898;4205.12820506
4205.89743583;4140.76923056;4209.10256404;4337.94871816;4370.00000028;1940.12820027;229.99999153;-0.00000896;4044.48717907;4726.15384720;4503.20512876;4301.41025655;4463.97435946;4205.76923070;4209.10256404;4205.25641019
4233.97435898;4135.64102544;4661.02564193;4367.56410285;4858.84615517;2004.74358502;229.99999153;-0.00000896;4039.87179446;4632.56410340;4565.00000070;4305.89743604;4466.79487229;4205.89743583;4208.97435891;4238.07692308
4204.23076917;4170.64102551;4598.46153923;4368.71794900;4498.97435953;2137.69230325;229.99999153;-0.00000896;3909.74358905;4631.53846238;4628.71794956;4302.30769245;4630.12820597;4206.79487173;4208.58974352;4205.25641019
4172.94871781;4202.56410250;4635.76923161;4272.43589751;4531.41025704;2140.38461094;229.99999153;-0.00000896;3976.02564047;4602.30769308;4569.48718019;4304.87179501;4729.87179592;4206.02564096;4207.43589737;4172.30769217
4172.30769217;4207.43589737;4923.97436044;4207.43589737;4893.46153986;2005.51281579;-0.00000896;-0.00000896;3942.82051220;4668.20512911;4858.71795004;4302.56410271;5028.84615552;4207.05128199;4208.84615378;4172.30769217
4175.76923063;4206.28205122;4602.94871872;4203.84615378;4529.74359037;1971.15384136;0.64101668;-0.00000896;3908.71794803;4696.66666764;4600.38461615;4303.46153860;4862.43589876;4205.89743583;4207.56410250;4172.30769217
4204.48717942;4205.76923070;4470.12820562;4203.58974352;4733.33333438;2006.02563630;229.99999153;-0.00000896;3971.53846099;4666.53846245;4201.02564096;4303.46153860;4009.87179439;4204.35897429;4208.71794865;4205.12820506
4234.10256411;4205.89743583;4107.56410229;4208.58974352;4204.99999993;1976.53845675;0.64101668;-0.00000896;3975.51281996;4660.89743680;4004.99999952;4304.48717963;4337.05128226;4204.99999993;4208.84615378;4237.94871795
4237.43589744;4205.76923070;4074.87179453;4237.17948718;4404.48717984;1976.79486700;229.99999153;-0.00000896;3975.89743535;4664.87179578;4269.35897443;4303.46153860;4240.89743590;4206.41025634;4233.84615385;4237.94871795
4235.89743590;4207.30769224;4402.82051317;4237.56410257;4562.05128275;2040.38461073;0.64101668;-0.00000896;3978.07692252;4629.61538545;4564.48718019;4304.74358989;4401.15384651;4207.56410250;4209.10256404;4237.94871795
4208.33333327;4208.33333327;4273.84615392;4207.69230763;4306.41025655;2041.53845689;229.99999153;-0.00000896;4004.23076875;4631.41025725;4141.53846133;4303.58974373;4765.51282163;4204.23076917;4208.84615378;4205.12820506
4207.43589737;4206.41025634;4897.43589883;4203.71794865;4700.51282149;1975.12820034;0.64101668;-0.00000896;4009.87179439;4634.74359058;4890.51282191;4302.82051296;4795.38461657;4206.41025634;4233.84615385;4205.12820506
4206.15384609;4205.64102558;4306.92307707;4204.23076917;4663.20512911;2002.94871323;229.99999153;-0.00000896;4041.53846113;4662.17948809;4301.66666681;4304.48717963;4470.89743639;4206.53846147;4208.46153840;4205.12820506
4203.97435891;4203.84615378;4857.94871927;4234.61538462;4727.82051387;2009.87179015;0.64101668;-0.00000896;4069.99999966;4635.25641109;4601.53846231;4300.00000014;4597.43589820;4206.41025634;4209.10256404;4205.12820506
4203.84615378;4202.05128199;4596.28205205;4236.41025641;4829.48718074;2009.23076451;229.99999153;-0.00000896;4042.94871754;4635.12820597;4497.94871851;4303.84615399;4666.79487270;4207.82051275;4208.97435891;4205.12820506
4202.56410250;4201.02564096;4500.38461594;4236.92307693;4602.56410333;2068.58973901;0.64101668;-0.00000896;4042.69230728;4635.38461622;4464.87179536;4303.20512835;4728.20512925;4206.15384609;4208.84615378;4205.12820506
4201.66666660;4174.99999986;4339.74358996;4238.20512821;4300.00000014;2040.25640560;229.99999153;-0.00000896;4043.97435856;4631.66666750;4077.82051248;4304.10256425;4369.35897464;4207.30769224;4235.51282052;4205.12820506
4201.92307686;4175.89743576;4499.48718005;4239.10256411;4504.48718005;2039.87179022;0.64101668;-0.00000896;4037.82051241;4661.41025732;4369.74359003;4302.56410271;4400.38461574;4208.97435891;4208.84615378;4205.12820506
4201.53846147;4175.64102551;4270.76923084;4240.64102564;4433.46153888;2006.79486707;229.99999153;-0.00000896;4040.76923036;4662.43589834;4596.28205205;4303.46153860;4367.05128233;4205.64102558;4208.84615378;4205.12820506
4203.07692301;4176.15384602;4567.94871865;4239.87179488;4959.74359128;2009.35896964;0.64101668;-0.00000896;4041.66666625;4663.84615475;4667.30769321;4303.97435912;4562.69230839;4206.28205122;4208.84615378;4205.12820506
4202.69230763;4174.48717935;4307.05128219;4239.87179488;4201.15384609;2009.23076451;229.99999153;-0.00000896;4039.99999959;4662.56410347;4533.58974422;4299.48717963;4402.69230804;4204.87179481;4235.89743590;4205.12820506
4202.69230763;4176.02564089;4436.79487222;4238.07692308;4404.35897471;2068.84614926;0.64101668;-0.00000896;4011.79487131;4662.43589834;4531.66666730;4305.51282066;4433.97435940;4207.17948711;4208.84615378;4205.12820506
4201.41025634;4203.33333327;4568.97435967;4208.71794865;4630.25641109;2038.97435432;229.99999153;-0.00000896;4009.99999952;4694.10256508;4403.07692343;4304.48717963;4701.02564200;4205.89743583;4207.69230763;4205.12820506
4201.92307686;4206.15384609;4467.82051331;4208.07692301;4698.84615482;2007.05127733;0.64101668;-0.00000896;4008.33333285;4665.25641116;4370.51282079;4305.12820527;4110.38461511;4206.79487173;4209.10256404;4205.12820506
4174.99999986;4234.48717949;4306.92307707;4234.61538462;4463.58974408;1972.05127726;229.99999153;-0.00000896;4008.97435849;4698.33333431;4138.33333313;4303.07692322;4630.12820597;4208.46153840;4207.43589737;4172.30769217
4175.51282038;4233.97435898;4141.92307672;4236.92307693;4208.97435891;1972.69230290;0.64101668;-0.00000896;4006.92307644;4696.53846252;4332.30769252;4302.43589758;4071.92307658;4206.02564096;4208.46153840;4172.30769217
4175.76923063;4207.30769224;4106.41025614;4238.97435898;4404.74359009;2003.58973887;229.99999153;-0.00000896;3978.33333278;4693.97435995;4102.69230742;4303.71794886;3844.99999917;4206.15384609;4208.97435891;4172.30769217
4174.74358961;4205.25641019;4536.66666730;4237.05128206;4797.43589862;2037.82050817;0.64101668;-0.00000896;4007.17948670;4667.43589834;4401.53846189;4304.48717963;4500.12820569;4205.76923070;4235.12820513;4172.30769217
4173.20512807;4207.30769224;4135.89743569;4208.84615378;4274.74358982;2039.61537996;229.99999153;-0.00000896;4008.71794824;4666.79487270;4171.41025628;4303.33333348;4335.38461560;4204.23076917;4208.97435891;4172.30769217
4172.17948704;4206.28205122;4435.76923119;4207.17948711;4957.43589897;2037.82050817;0.64101668;-0.00000896;4011.66666618;4662.17948809;4467.56410305;4303.84615399;4267.17948725;4206.41025634;4208.97435891;4172.30769217
4174.48717935;4204.87179481;4338.20512842;4205.89743583;4597.05128282;2009.61537989;229.99999153;-0.00000896;4040.76923036;4663.97435988;4333.20512842;4304.74358989;4267.43589751;4208.20512814;4208.97435891;4172.30769217
4174.10256397;4202.94871788;4663.07692398;4236.15384616;4726.15384720;2009.10255938;0.64101668;-0.00000896;4042.69230728;4660.76923168;4530.64102627;4305.64102578;4698.20512918;4207.43589737;4233.97435898;4172.30769217
4201.15384609;4174.74358961;4534.87179550;4240.00000000;4731.28205233;2007.82050810;229.99999153;-0.00000896;4039.48717907;4634.87179571;4661.79487270;4303.97435912;4598.46153923;4205.76923070;4209.10256404;4205.12820506
4204.23076917;4170.76923063;4402.56410292;4240.76923077;4663.58974450;2039.10255945;0.25640130;-0.00000896;4037.94871754;4661.53846245;4502.69230825;4303.58974373;4726.66666771;4204.35897429;4208.46153840;4205.12820506
4205.76923070;4170.12820499;4666.02564193;4241.92307693;4663.46153937;2042.82050817;3.07691412;-0.00000896;4009.74358926;4662.30769321;4628.58974443;4303.07692322;4629.74359058;4207.17948711;4208.97435891;4205.12820506
4208.33333327;4142.05128185;4567.05128275;4241.41025641;4595.38461615;2037.43589278;-0.00000896;-0.00000896;4006.92307644;4663.84615475;4340.12820534;4302.94871809;4661.53846245;4206.79487173;4235.25641026;4205.12820506
4236.53846154;4141.66666646;4438.58974401;4238.07692308;4502.94871851;2041.28204663;229.99999153;-0.00000896;4005.38461490;4633.71794956;4335.12820534;4306.53846168;4536.53846217;4207.17948711;4209.10256404;4237.94871795
4237.82051282;4169.61538448;4337.69230790;4236.41025641;4273.46153853;2041.79486714;229.99999153;-0.00000896;4006.79487131;4635.12820597;4135.38461518;4302.30769245;4071.66666632;4204.61538455;4208.46153840;4237.94871795
4236.92307693;4201.41025634;4234.48717949;4237.56410257;4569.10256480;2008.07691836;229.99999153;-0.00000896;4008.58974311;4667.05128296;4665.76923168;4302.17948732;4499.74359030;4233.97435898;4208.33333327;4237.94871795
4238.46153847;4204.87179481;4563.46153916;4234.87179488;4268.97435905;2006.41025169;229.99999153;-0.00000896;4040.25640984;4666.92307783;4765.25641137;4303.46153860;4726.66666771;4207.56410250;4208.71794865;4237.94871795
4235.00000000;4207.82051275;4368.71794900;4238.07692308;4697.43589841;2005.89743118;-0.00000896;-0.00000896;4042.69230728;4664.74359065;4537.17948781;4301.28205142;4171.15384602;4206.15384609;4209.10256404;4237.94871795
4206.53846147;4235.38461539;4537.17948781;4236.41025641;4564.48718019;2008.71794400;-0.00000896;-0.00000896;4039.10256369;4667.69230860;4240.89743590;4304.48717963;4562.56410326;4205.51282045;4208.97435891;4205.12820506
4202.69230763;4237.43589744;4435.38461581;4236.66666667;4531.66666730;2038.07691843;-0.00000896;-0.00000896;4036.92307651;4665.38461629;4665.76923168;4301.79487194;4533.20512883;4206.79487173;4233.84615385;4205.12820506
4175.89743576;4236.92307693;4404.61538497;4235.25641026;4470.64102613;2036.66666201;-0.00000896;-0.00000896;4037.43589702;4695.12820610;4433.20512863;4301.53846168;4433.97435940;4207.05128199;4208.46153840;4172.30769217
4175.12820499;4235.89743590;4400.51282086;4236.92307693;4597.56410333;2003.84614912;-0.00000896;-0.00000896;4038.84615343;4695.64102662;4273.84615392;4300.89743604;4204.10256404;4206.02564096;4234.48717949;4172.30769217
4201.02564096;4205.89743583;4497.69230825;4240.89743590;4307.43589758;2004.35896964;-0.00000896;-0.00000896;4011.53846106;4665.89743680;4465.76923126;4303.84615399;4529.61538524;4205.64102558;4208.58974352;4205.12820506
4202.69230763;4205.25641019;4597.69230846;4241.41025641;4825.12820638;2007.82050810;-0.00000896;-0.00000896;4010.51282003;4661.15384706;4504.35897492;4304.74358989;4664.48718039;4207.30769224;4208.97435891;4205.12820506
4203.97435891;4174.87179474;4138.58974339;4240.51282052;4337.17948739;2006.66666195;-0.00000896;-0.00000896;4007.56410208;4666.79487270;4040.12820472;4303.58974373;3979.10256355;4207.17948711;4233.97435898;4205.12820506
4206.79487173;4168.84615371;4535.89743653;4267.05128212;4927.82051428;2009.23076451;-0.00000896;-0.00000896;4004.23076875;4665.76923168;4602.94871872;4304.48717963;4596.41025718;4205.76923070;4235.12820513;4205.12820506
4234.35897436;4139.99999980;4437.43589786;4267.43589751;4405.25641061;2041.92307227;-0.00000896;-0.00000896;3977.94871740;4662.43589834;4367.94871823;4303.97435912;4500.89743646;4206.28205122;4208.97435891;4237.94871795
4236.79487180;4139.74358954;4467.17948767;4239.87179488;4564.87179557;2035.64102099;-0.00000896;-0.00000896;3974.35897381;4661.92307783;4202.43589737;4301.92307707;4335.76923098;4206.15384609;4208.46153840;4237.94871795
4237.05128206;4142.17948697;4595.89743667;4241.53846154;4598.84615461;2009.87179015;-0.00000896;-0.00000896;3978.20512765;4631.28205212;4503.58974415;4304.61538476;4432.69230811;4206.28205122;4234.74358975;4237.94871795
4208.46153840;4172.82051269;4437.30769273;4241.66666667;4563.71794942;2039.10255945;-0.00000896;-0.00000896;3978.84615329;4635.38461622;4602.17948795;4304.74358989;4697.82051380;4207.82051275;4208.46153840;4205.12820506
4205.25641019;4205.51282045;4661.15384706;4239.10256411;4701.41025739;2039.87179022;-0.00000896;-0.00000896;4004.10256362;4662.05128296;4562.43589813;4304.74358989;4567.94871865;4206.41025634;4208.84615378;4205.12820506
4201.79487173;4235.25641026;4176.28205115;4236.41025641;4368.46153874;2039.87179022;-0.00000896;-0.00000896;4012.17948670;4632.30769315;4302.05128219;4305.64102578;4333.84615406;4208.46153840;4208.97435891;4205.12820506
4173.71794858;4237.30769231;4567.94871865;4234.48717949;4631.28205212;2035.64102099;-0.00000896;-0.00000896;4008.84615336;4661.92307783;4304.48717963;4304.74358989;4497.43589800;4207.69230763;4207.30769224;4172.30769217
4172.43589730;4237.94871795;4271.92307700;4208.84615378;4239.74358975;2009.87179015;-0.00000896;-0.00000896;4006.53846106;4694.35897534;4598.84615461;4303.20512835;4306.66666681;4208.07692301;4233.84615385;4172.30769217
4170.76923063;4236.79487180;4405.25641061;4206.92307686;4761.66666778;2036.41025176;-0.00000896;-0.00000896;4005.25640977;4694.10256508;4170.38461525;4302.17948732;4403.58974394;4206.02564096;4233.84615385;4172.30769217
4171.02564089;4234.10256411;4004.87179439;4204.10256404;4368.07692336;2008.71794400;-0.00000896;-0.00000896;4010.12820465;4663.97435988;4271.15384623;4302.82051296;3975.89743535;4206.28205122;4234.35897436;4172.30769217
4173.71794858;4205.89743583;4335.76923098;4206.79487173;4365.38461567;2003.58973887;-0.00000896;-0.00000896;4011.02564054;4664.10256501;4234.61538462;4305.38461553;4303.71794886;4207.17948711;4235.64102564;4172.30769217
4175.38461525;4201.92307686;4565.00000070;4233.84615385;4633.46153930;2007.94871323;-0.00000896;-0.00000896;4008.58974311;4667.05128296;4365.25641054;4303.07692322;4143.07692287;4233.84615385;4235.38461539;4172.30769217
4203.20512814;4172.56410243;4701.02564200;4235.64102564;4634.10256494;2037.05127740;-0.00000896;-0.00000896;4004.99999952;4664.35897527;4468.84615434;4302.94871809;4437.43589786;4205.51282045;4233.84615385;4205.12820506
4206.02564096;4168.33333320;4274.61538469;4238.46153847;4634.35897520;2037.05127740;-0.00000896;-0.00000896;4004.87179439;4661.02564193;4732.82051387;4300.38461553;4437.82051324;4206.66666660;4207.05128199;4205.12820506
4234.74358975;4140.76923056;4369.10256438;4238.84615385;4400.25641061;2008.97435425;-0.00000896;-0.00000896;4005.64102516;4662.82051373;4501.92307748;4302.94871809;4301.41025655;4205.64102558;4233.84615385;4237.94871795
4238.71794872;4138.71794851;4175.12820499;4240.76923077;4340.00000021;2007.94871323;229.99999153;-0.00000896;4006.28205080;4663.33333424;4628.33333417;4274.35897443;4332.30769252;4206.15384609;4235.38461539;4237.94871795
4239.23076923;4139.87179467;4732.82051387;4241.66666667;4601.53846231;2008.84614912;1.41024745;-0.00000896;4004.99999952;4665.89743680;4465.00000049;4300.64102578;4502.17948774;4206.66666660;4208.46153840;4237.94871795
4239.74358975;4168.20512807;4168.33333320;4267.17948725;4398.33333368;2036.28204663;-0.00000896;-0.00000896;4006.92307644;4634.48718032;4533.58974422;4303.58974373;4142.69230749;4233.97435898;4208.84615378;4237.94871795
4235.51282052;4174.74358961;4796.02564221;4267.17948725;4663.07692398;2039.74358509;-0.00000896;-0.00000896;4009.48717900;4632.56410340;4334.87179508;4306.15384630;4825.89743715;4234.48717949;4208.71794865;4237.94871795
4205.64102558;4205.25641019;4666.15384706;4240.00000000;4338.71794893;2067.82050824;229.99999153;-0.00000896;4039.99999959;4631.15384699;4602.17948795;4304.74358989;4436.41025683;4207.82051275;4208.46153840;4205.12820506
4201.02564096;4235.51282052;4564.48718019;4237.94871795;4568.46153916;2038.07691843;229.99999153;-0.00000896;4037.30769189;4664.87179578;4300.51282066;4303.97435912;4529.87179550;4207.82051275;4208.46153840;4205.12820506
4172.17948704;4239.10256411;4699.87179585;4238.20512821;4599.35897513;2035.76922612;229.99999153;-0.00000896;4009.87179439;4664.35897527;4668.33333424;4304.61538476;4405.89743625;4208.84615378;4208.46153840;4172.30769217
4168.71794858;4237.69230770;4500.12820569;4234.87179488;4597.17948795;2005.64102092;229.99999153;-0.00000896;4009.48717900;4661.92307783;3976.41025586;4303.20512835;4569.23076993;4207.56410250;4236.15384616;4172.30769217
4142.94871774;4235.25641026;4271.41025648;4235.00000000;4235.89743590;2007.94871323;229.99999153;-0.00000896;4007.30769183;4665.12820604;4307.17948732;4302.43589758;4173.07692294;4207.69230763;4209.10256404;4139.48717928
4170.64102551;4207.30769224;4108.84615357;4237.43589744;4463.97435946;2038.71794407;229.99999153;-0.00000896;4005.89743541;4666.15384706;4168.33333320;4301.15384630;4142.56410236;4208.84615378;4209.10256404;4172.30769217
4175.38461525;4203.07692301;4668.33333424;4237.56410257;4732.94871899;2035.76922612;229.99999153;-0.00000896;3977.56410201;4666.28205219;4600.51282128;4305.00000014;4567.94871865;4206.92307686;4208.58974352;4172.30769217
4203.33333327;4174.74358961;4532.05128268;4238.97435898;4760.38461650;2005.25640554;229.99999153;-0.00000896;3977.17948663;4663.84615475;4630.89743674;4302.94871809;4534.74359037;4206.28205122;4208.71794865;4205.12820506
4207.05128199;4168.97435884;4498.20512876;4239.87179488;4596.66666743;2003.46153374;229.99999153;-0.00000896;3977.69230714;4668.46153937;4631.15384699;4302.05128219;4469.87179536;4206.92307686;4208.97435891;4205.12820506
4237.94871795;4139.99999980;4496.66666723;4270.76923084;4369.10256438;2005.64102092;229.99999153;-0.00000896;3974.48717894;4665.76923168;4307.30769245;4303.20512835;4471.15384664;4208.97435891;4208.58974352;4237.94871795
4268.71794879;4137.94871774;4076.79487145;4274.61538469;4339.10256431;2009.87179015;229.99999153;-0.00000896;3975.64102509;4661.92307783;4270.25641033;4301.28205142;4270.64102571;4207.17948711;4208.58974352;4270.76923084
4241.53846154;4142.43589723;4405.51282086;4301.02564117;4405.76923112;2036.28204663;229.99999153;-0.00000896;3976.02564047;4631.53846238;4635.51282135;4303.07692322;4404.35897471;4234.35897436;4234.61538462;4237.94871795
4239.61538462;4170.51282038;4602.05128282;4300.64102578;4628.46153930;2009.99999528;229.99999153;-0.00000896;3972.56410201;4627.82051366;4405.64102599;4303.84615399;4667.05128296;4207.56410250;4208.71794865;4237.94871795
4205.64102558;4204.10256404;4728.58974464;4273.71794879;4501.79487235;2068.07691849;229.99999153;-0.00000896;4004.87179439;4633.20512904;4696.28205226;4303.58974373;4497.30769287;4208.97435891;4208.84615378;4205.12820506
4175.25641012;4233.97435898;4432.17948760;4267.82051289;4728.07692412;2041.92307227;229.99999153;-0.00000896;3944.61538399;4631.53846238;4432.94871837;4303.58974373;4701.28205226;4234.48717949;4208.58974352;4172.30769217
4170.76923063;4237.56410257;4726.15384720;4238.84615385;4435.00000042;2035.64102099;229.99999153;-0.00000896;3940.89743528;4633.20512904;4567.56410326;4303.33333348;4595.25641102;4208.46153840;4208.58974352;4172.30769217
4143.07692287;4240.00000000;4534.10256473;4236.15384616;4727.05128310;2038.58973894;229.99999153;-0.00000896;3941.53846092;4663.20512911;4989.61538622;4302.94871809;4732.17948823;4208.71794865;4207.94871788;4139.48717928
4168.71794858;4236.92307693;4437.69230811;4205.38461532;4632.56410340;2036.92307227;229.99999153;-0.00000896;3911.79487110;4666.41025732;4175.89743576;4303.71794886;4635.64102648;4207.82051275;4208.84615378;4172.30769217
4171.53846140;4207.82051275;4041.28205087;4176.15384602;4464.87179536;2039.87179022;229.99999153;-0.00000896;3941.66666605;4635.76923161;4305.51282066;4302.43589758;3975.76923022;4207.30769224;4233.84615385;4172.17948704
4173.46153833;4205.12820506;4434.74359016;4171.53846140;4668.33333424;2035.38461073;229.99999153;-0.00000896;3975.64102509;4661.79487270;4372.43589772;4305.51282066;4565.64102634;4207.05128199;4208.71794865;4172.17948704
4176.28205115;4176.02564089;4498.20512876;4174.61538448;4564.48718019;2009.48717477;229.99999153;-0.00000896;4006.15384567;4665.12820604;4570.12820583;4304.10256425;4533.07692371;4208.71794865;4234.48717949;4172.17948704
4206.02564096;4169.74358961;4137.05128185;4204.99999993;4274.10256418;2005.12820041;229.99999153;-0.00000896;3979.10256355;4666.53846245;4337.94871816;4302.30769245;4304.74358989;4207.82051275;4208.71794865;4205.12820506
4234.48717949;4138.84615364;4566.53846224;4234.35897436;4301.53846168;2005.89743118;229.99999153;-0.00000896;4004.23076875;4666.41025732;4825.89743715;4305.12820527;4628.71794956;4207.82051275;4206.79487173;4237.94871795
4241.15384616;4109.87179460;4271.66666674;4240.89743590;4665.76923168;2008.20512348;229.99999153;-0.00000896;3974.35897381;4693.97435995;4272.82051289;4301.92307707;3940.38461476;4208.71794865;4208.71794865;4237.94871795
4273.07692315;4103.33333306;4237.69230770;4269.74358982;4267.43589751;2004.48717477;229.99999153;-0.00000896;4009.99999952;4661.53846245;3977.05128150;4304.48717963;4172.82051269;4208.20512814;4208.84615378;4270.76923084
4301.41025655;4102.69230742;4333.84615406;4300.51282066;4272.43589751;2006.92307220;229.99999153;-0.00000896;3975.89743535;4537.17948781;4102.56410229;4303.97435912;4402.94871830;4208.07692301;4208.33333327;4303.58974373
4267.05128212;4142.56410236;4863.58974491;4303.97435912;4535.51282114;2035.76922612;229.99999153;-0.00000896;3971.28205073;4633.71794956;4793.33333452;4304.87179501;4829.23077049;4208.46153840;4208.33333327;4270.76923084
4235.00000000;4174.10256397;4893.71795011;4302.17948732;4405.25641061;2073.33332875;229.99999153;-0.00000896;4004.74358926;4633.46153930;4797.82051401;4304.23076937;4890.38461678;4234.10256411;4208.07692301;4237.94871795
4206.02564096;4202.82051275;4433.07692350;4269.10256418;4629.23077007;2068.46153388;229.99999153;-0.00000896;3944.61538399;4630.12820597;4370.25641054;4303.71794886;4270.64102571;4208.84615378;4208.33333327;4205.12820506
4201.92307686;4207.94871788;4398.07692343;4239.87179488;4463.97435946;2039.61537996;229.99999153;-0.00000896;3973.46153791;4600.64102641;4630.76923161;4303.58974373;4498.33333389;4234.10256411;4208.46153840;4205.12820506
4172.17948704;4234.61538462;4497.17948774;4234.74358975;4471.15384664;2037.69230304;229.99999153;-0.00000896;3974.87179432;4628.33333417;4663.33333424;4304.35897450;4532.43589807;4209.10256404;4208.71794865;4172.30769217
4169.61538448;4234.35897436;4827.05128331;4208.20512814;4858.71795004;2008.84614912;229.99999153;-0.00000896;3913.20512751;4663.07692398;4598.33333410;4305.12820527;4470.51282100;4234.35897436;4233.84615385;4172.30769217
4169.48717935;4207.05128199;3912.69230700;4202.82051275;3977.56410201;2036.92307227;229.99999153;-0.00000896;3910.12820444;4629.74359058;4433.97435940;4303.07692322;4305.38461553;4234.10256411;4208.33333327;4172.30769217
4169.87179474;4204.99999993;4371.28205156;4173.97435884;4629.35897520;2009.35896964;-0.00000896;-0.00000896;3941.15384553;4632.17948802;4077.17948684;4304.61538476;4136.28205108;4235.64102564;4207.56410250;4172.17948704
4173.20512807;4175.38461525;4305.12820527;4176.28205115;4436.02564145;2004.10255938;2.17947822;-0.00000896;3973.20512765;4663.71794963;4303.84615399;4301.92307707;4238.71794872;4234.74358975;4208.46153840;4172.17948704
4201.41025634;4171.02564089;4334.87179508;4204.35897429;4401.28205163;1974.87179008;229.99999153;-0.00000896;3971.66666611;4602.56410333;4236.53846154;4303.58974373;4530.64102627;4207.56410250;4208.07692301;4205.12820506
4204.87179481;4169.10256397;4471.28205177;4235.51282052;4696.02564200;2006.02563630;2.17947822;-0.00000896;3974.48717894;4633.84615468;4306.15384630;4304.35897450;4107.17948691;4208.71794865;4208.46153840;4205.12820506
4208.07692301;4140.38461518;4009.10256362;4241.92307693;4339.87179508;2009.87179015;-0.00000896;-0.00000896;3978.97435842;4629.23077007;4534.61538524;4301.79487194;4271.28205136;4233.97435898;4208.07692301;4205.12820506
