Gyro-X;Gyro-Z;AF3;Gyro-Y;T7;Acc-X;Pz;QualityData_1;QualityData_2;Acc-Z;Acc-Y;T8;Mag-X;AF4;Mag-Z;Mag-Y;Mag-X;Gyro-X 
4203.71794865;4206.79487173;4337.82051303;4234.23076923;5219.35897645;4074.87179453;229.99999153;-0.00000896;4367.05128233;6338.58974804;4208.97435891;4170.38461525;4333.58974380;4235.12820513;4236.28205129;4205.12820506
4203.33333327;4204.74358968;4239.61538462;4235.38461539;5055.38461713;4074.99999966;229.99999153;-0.00000896;4367.30769259;6334.87179932;4208.84615378;4170.76923063;4235.64102564;4235.12820513;4236.28205129;4205.12820506
4204.61538455;4204.10256404;4336.66666688;4234.48717949;4957.05128358;4077.05128171;229.99999153;-0.00000896;4366.28205156;6335.76923522;4208.46153840;4168.20512807;4333.58974380;4233.97435898;4236.28205129;4205.12820506
4205.25641019;4203.20512814;4307.43589758;4235.25641026;5061.53846328;4076.02564068;229.99999153;-0.00000896;4367.30769259;6338.07692753;4208.71794865;4170.51282038;4267.56410264;4234.74358975;4235.89743590;4205.12820506
4204.99999993;4202.94871788;4366.15384644;4236.28205129;5024.61538629;4074.48717914;229.99999153;-0.00000896;4340.12820534;6336.66667112;4208.84615378;4170.89743576;4334.61538483;4233.84615385;4236.15384616;4205.12820506
4205.89743583;4201.28205122;4241.66666667;4234.23076923;5185.64102766;4076.02564068;229.99999153;-0.00000896;4338.07692329;6336.02564548;4209.10256404;4172.43589730;4236.79487180;4234.61538462;4236.15384616;4205.12820506
4203.97435891;4202.94871788;4267.69230777;4235.38461539;5029.61538629;4073.58974325;229.99999153;-0.00000896;4335.89743611;6309.10256848;4209.10256404;4171.53846140;4234.61538462;4236.15384616;4233.84615385;4205.12820506
4205.38461532;4202.05128199;4305.64102578;4235.76923077;5028.07692475;4075.76923043;229.99999153;-0.00000896;4340.12820534;6334.74359419;4233.84615385;4172.94871781;4333.33333355;4235.12820513;4236.28205129;4205.12820506
4203.84615378;4202.69230763;4302.94871809;4234.10256411;5160.00000195;4074.35897402;229.99999153;-0.00000896;4366.28205156;6336.28205573;4233.97435898;4170.76923063;4336.66666688;4233.84615385;4234.74358975;4205.12820506
4202.69230763;4203.07692301;4431.92307734;4234.23076923;5121.79487367;4074.48717914;229.99999153;-0.00000896;4365.25641054;6306.79487618;4208.46153840;4171.15384602;4272.17948725;4234.87179488;4236.53846154;4205.12820506
4203.07692301;4203.20512814;4305.25641040;4235.25641026;5127.17948906;4104.23076896;229.99999153;-0.00000896;4368.58974387;6301.92308130;4209.10256404;4175.38461525;4206.41025634;4235.89743590;4234.23076923;4205.12820506
4203.07692301;4204.61538455;4238.84615385;4234.61538462;4963.84615538;4102.82051255;229.99999153;-0.00000896;4369.74359003;6275.64102995;4208.84615378;4172.05128192;4203.71794865;4235.76923077;4235.76923077;4205.12820506
4202.69230763;4204.87179481;4207.17948711;4235.64102564;4962.05128358;4075.89743555;229.99999153;-0.00000896;4370.51282079;6334.61538907;4233.84615385;4170.51282038;4239.74358975;4234.48717949;4236.02564103;4205.12820506
4203.71794865;4204.48717942;4335.00000021;4235.51282052;5058.33333507;4072.94871761;229.99999153;-0.00000896;4369.61538490;6334.74359419;4233.97435898;4171.79487166;4237.69230770;4208.58974352;4236.02564103;4205.12820506
4204.48717942;4176.15384602;4273.58974366;4236.15384616;5125.64102752;4044.74358933;229.99999153;-0.00000896;4367.05128233;6307.17949156;4208.58974352;4170.38461525;4142.94871774;4235.38461539;4235.76923077;4205.12820506
4206.41025634;4173.07692294;4233.84615385;4237.69230770;4992.56410417;4044.10256369;229.99999153;-0.00000896;4339.48717970;6307.82051720;4208.84615378;4169.74358961;4069.99999966;4235.51282052;4236.15384616;4205.12820506
4204.99999993;4201.28205122;4334.61538483;4236.28205129;5188.46154048;4070.76923043;-0.00000896;-0.00000896;4339.61538483;6302.17949156;4208.84615378;4172.82051269;4103.20512793;4235.76923077;4235.89743590;4205.12820506
4203.97435891;4203.07692301;4305.64102578;4235.38461539;5055.25641200;4070.89743555;229.99999153;-0.00000896;4338.97435919;6305.12820951;4208.84615378;4171.41025628;4142.56410236;4236.53846154;4235.00000000;4205.12820506
4204.10256404;4204.23076917;4305.38461553;4235.64102564;5091.66666848;4044.61538420;-0.00000896;-0.00000896;4339.61538483;6340.64103009;4208.84615378;4171.53846140;4044.61538420;4235.64102564;4235.64102564;4205.12820506
4204.48717942;4204.10256404;4204.61538455;4234.61538462;5026.15384783;4070.64102530;-0.00000896;-0.00000896;4338.58974380;6337.82051727;4233.84615385;4170.76923063;4175.38461525;4234.48717949;4237.43589744;4205.12820506
4204.87179481;4204.61538455;4465.89743639;4236.02564103;4958.20512974;4071.41025607;104.35896561;-0.00000896;4367.05128233;6307.30769669;4206.92307686;4171.15384602;4105.51282024;4236.53846154;4236.53846154;4205.12820506
4205.51282045;4203.71794865;4272.17948725;4235.00000000;5158.20513015;4073.84615350;229.99999153;-0.00000896;4365.38461567;6336.02564548;4234.23076923;4171.28205115;4274.35897443;4208.97435891;4236.02564103;4205.12820506
4204.48717942;4202.17948711;4336.79487201;4235.25641026;5025.89743757;4072.82051248;229.99999153;-0.00000896;4338.71794893;6341.92308137;4208.71794865;4171.92307679;4208.71794865;4235.25641026;4238.33333334;4205.12820506
4204.74358968;4203.71794865;4204.74358968;4235.51282052;5058.97436072;4076.92307658;229.99999153;-0.00000896;4338.97435919;6341.79487625;4208.58974352;4173.58974345;4237.94871795;4235.00000000;4236.15384616;4205.12820506
4204.99999993;4202.43589737;4400.25641061;4235.51282052;5124.23077111;4074.74358940;229.99999153;-0.00000896;4366.66666695;6336.28205573;4208.84615378;4171.53846140;4299.87179501;4235.00000000;4236.41025641;4205.12820506
4203.46153840;4202.43589737;4369.35897464;4234.35897436;5125.89743778;4073.58974325;-0.00000896;-0.00000896;4367.82051310;6308.20513259;4233.84615385;4171.92307679;4335.64102585;4236.15384616;4235.64102564;4205.12820506
4202.82051275;4201.28205122;4339.87179508;4235.25641026;4990.89743750;4071.02564068;-0.00000896;-0.00000896;4367.17948746;6309.23077361;4233.84615385;4171.53846140;4365.38461567;4235.51282052;4235.51282052;4205.12820506
4202.69230763;4173.71794858;4398.71794907;4236.02564103;5089.10256591;4074.10256376;-0.00000896;-0.00000896;4367.05128233;6335.00000445;4209.10256404;4171.28205115;4368.20512849;4236.02564103;4236.02564103;4205.12820506
4204.10256404;4173.33333320;4333.20512842;4236.15384616;5025.25641193;4070.89743555;-0.00000896;-0.00000896;4366.28205156;6337.05128650;4208.71794865;4174.35897422;4305.51282066;4235.12820513;4236.41025641;4205.12820506
4204.87179481;4171.53846140;4208.84615378;4237.30769231;4995.51282211;4073.46153812;-0.00000896;-0.00000896;4366.79487208;6308.07692746;4208.33333327;4172.43589730;4307.05128219;4235.64102564;4236.28205129;4205.12820506
4206.79487173;4170.25641012;4465.64102613;4236.41025641;4990.00000160;4043.46153805;-0.00000896;-0.00000896;4366.15384644;6334.61538907;4208.46153840;4173.20512807;4339.87179508;4208.46153840;4236.41025641;4205.12820506
4207.43589737;4170.76923063;4176.02564089;4237.69230770;5091.02564284;4042.17948677;-0.00000896;-0.00000896;4366.02564131;6308.33333771;4208.46153840;4172.94871781;4367.30769259;4234.35897436;4236.28205129;4205.12820506
4207.69230763;4170.25641012;4304.87179501;4238.33333334;5054.74359148;4038.71794830;-0.00000896;-0.00000896;4365.12820541;6308.71795310;4209.10256404;4170.89743576;4399.35897471;4235.76923077;4235.76923077;4205.12820506
4207.82051275;4171.28205115;4172.69230756;4237.05128206;5091.79487361;4040.12820472;-0.00000896;-0.00000896;4339.23076944;6307.56410695;4208.84615378;4169.87179474;4334.10256431;4235.76923077;4236.92307693;4205.12820506
4207.30769224;4172.43589730;4334.87179508;4236.41025641;5060.64102738;4040.89743548;-0.00000896;-0.00000896;4339.87179508;6308.71795310;4233.84615385;4172.69230756;4299.48717963;4235.89743590;4236.02564103;4205.12820506
4206.15384609;4174.99999986;4274.74358982;4237.43589744;5160.38461733;4040.89743548;-0.00000896;-0.00000896;4339.87179508;6306.92308130;4209.10256404;4172.05128192;4367.05128233;4235.64102564;4236.92307693;4205.12820506
4205.64102558;4201.53846147;4273.33333341;4234.74358975;4897.69230909;4041.79487138;-0.00000896;-0.00000896;4338.20512842;6335.76923522;4208.84615378;4172.69230756;4339.61538483;4233.84615385;4235.89743590;4205.12820506
4204.74358968;4202.30769224;4207.17948711;4235.38461539;5125.25641214;4040.38461497;-0.00000896;-0.00000896;4339.23076944;6309.10256848;4208.97435891;4174.99999986;4299.48717963;4235.12820513;4235.89743590;4205.12820506
4204.10256404;4202.56410250;4207.30769224;4235.64102564;5088.46154027;4039.99999959;-0.00000896;-0.00000896;4338.71794893;6307.05128643;4208.97435891;4168.20512807;4399.35897471;4234.23076923;4235.76923077;4205.12820506
4204.87179481;4202.69230763;4332.82051303;4234.74358975;5092.43589925;4040.64102523;-0.00000896;-0.00000896;4338.84615406;6304.74359413;4208.84615378;4170.89743576;4268.84615392;4234.48717949;4235.38461539;4205.12820506
4204.48717942;4202.30769224;4206.28205122;4235.76923077;4993.33333494;4041.28205087;-0.00000896;-0.00000896;4339.10256431;6307.17949156;4208.84615378;4170.12820499;4304.10256425;4235.00000000;4235.64102564;4205.12820506
4204.99999993;4202.69230763;4368.33333362;4235.00000000;5055.25641200;4041.41025600;-0.00000896;-0.00000896;4340.25641047;6337.30769676;4208.97435891;4172.17948704;4337.43589765;4235.89743590;4236.02564103;4205.12820506
4204.61538455;4203.33333327;4106.41025614;4235.76923077;5122.82051470;4041.79487138;-0.00000896;-0.00000896;4366.28205156;6309.35897874;4208.71794865;4169.87179474;4235.12820513;4235.38461539;4235.76923077;4205.12820506
4206.15384609;4202.17948711;4267.17948725;4235.76923077;4989.74359135;4043.07692266;-0.00000896;-0.00000896;4340.38461560;6336.79487625;4208.84615378;4172.43589730;4239.74358975;4235.64102564;4235.64102564;4205.12820506
4204.87179481;4202.05128199;4208.33333327;4234.87179488;5023.20512988;4039.61538420;-0.00000896;-0.00000896;4339.74358996;6309.23077361;4208.84615378;4169.99999986;4371.02564131;4234.35897436;4238.84615385;4205.12820506
4205.76923070;4201.15384609;4405.51282086;4235.00000000;5094.23077104;4040.38461497;-0.00000896;-0.00000896;4338.71794893;6309.23077361;4208.84615378;4171.92307679;4237.05128206;4235.25641026;4236.15384616;4205.12820506
4204.48717942;4202.43589737;4174.35897422;4235.64102564;4994.48718109;4041.15384574;-0.00000896;-0.00000896;4365.51282079;6334.35897881;4208.84615378;4169.87179474;4236.66666667;4235.00000000;4235.51282052;4205.12820506
4205.38461532;4201.79487173;4301.28205142;4234.87179488;5160.89743785;4044.74358933;-0.00000896;-0.00000896;4340.12820534;6340.12820958;4208.84615378;4175.25641012;4238.07692308;4235.51282052;4236.02564103;4205.12820506
4204.48717942;4202.05128199;4238.97435898;4236.53846154;5024.74359142;4041.66666625;-0.00000896;-0.00000896;4339.74358996;6337.56410702;4208.84615378;4171.15384602;4305.25641040;4235.12820513;4236.15384616;4205.12820506
4204.74358968;4203.20512814;4270.12820520;4235.64102564;5061.92307866;4042.05128164;229.99999153;-0.00000896;4339.48717970;6338.84615830;4208.71794865;4170.25641012;4339.23076944;4235.38461539;4235.76923077;4205.12820506
4204.61538455;4203.20512814;4303.58974373;4235.00000000;4989.23077083;4042.05128164;66.92306810;-0.00000896;4338.97435919;6334.35897881;4209.10256404;4170.51282038;4332.30769252;4235.38461539;4235.64102564;4205.12820506
4205.76923070;4203.46153840;4239.48717949;4235.12820513;5185.64102766;4044.10256369;8275.12821368;-0.00000896;4339.10256431;6336.02564548;4208.84615378;4169.48717935;4340.25641047;4235.25641026;4235.25641026;4205.12820506
4203.84615378;4202.69230763;4236.66666667;4235.25641026;5023.46154013;4042.30769189;0.25640130;-0.00000896;4339.35897457;6338.71795317;4208.71794865;4172.56410243;4304.35897450;4236.02564103;4235.25641026;4205.12820506
4204.87179481;4202.30769224;4339.10256431;4235.25641026;5091.41025822;4043.07692266;229.99999153;-0.00000896;4338.33333355;6306.53846592;4208.97435891;4170.25641012;4332.82051303;4237.82051282;4235.38461539;4205.12820506
4204.99999993;4202.94871788;4401.92307727;4209.10256404;5126.15384803;4042.69230728;229.99999153;-0.00000896;4338.71794893;6336.02564548;4208.58974352;4174.74358961;4303.97435912;4235.76923077;4235.64102564;4205.12820506
4204.99999993;4202.94871788;4365.25641054;4234.87179488;4996.53846314;4042.43589702;229.99999153;-0.00000896;4340.25641047;6309.10256848;4207.30769224;4173.46153833;4338.71794893;4236.53846154;4236.15384616;4205.12820506
4204.35897429;4202.30769224;4201.15384609;4234.61538462;4993.58974519;4042.82051241;229.99999153;-0.00000896;4339.10256431;6335.12820958;4208.58974352;4173.07692294;4306.28205142;4235.64102564;4236.02564103;4205.12820506
4205.12820506;4201.02564096;4434.74359016;4235.25641026;5094.87179668;4040.89743548;229.99999153;-0.00000896;4339.23076944;6308.58974797;4208.84615378;4171.66666653;4366.66666695;4234.74358975;4237.05128206;4205.12820506
4204.74358968;4201.41025634;4366.79487208;4235.12820513;5122.43589932;4041.79487138;229.99999153;-0.00000896;4339.61538483;6309.35897874;4234.48717949;4172.05128192;4333.58974380;4233.97435898;4235.38461539;4205.12820506
4204.35897429;4202.56410250;4338.46153867;4235.25641026;5120.12820701;4039.99999959;229.99999153;-0.00000896;4339.10256431;6308.46154284;4206.53846147;4170.64102551;4305.89743604;4235.38461539;4236.02564103;4205.12820506
4204.99999993;4202.94871788;4369.48717977;4233.97435898;5022.56410424;4043.20512779;229.99999153;-0.00000896;4365.25641054;6309.23077361;4234.10256411;4170.89743576;4335.12820534;4235.51282052;4235.89743590;4205.12820506
4204.23076917;4203.84615378;4240.25641026;4235.64102564;5094.23077104;4041.79487138;229.99999153;-0.00000896;4340.00000021;6309.35897874;4208.07692301;4172.69230756;4269.35897443;4235.51282052;4238.84615385;4205.12820506
4204.10256404;4204.10256404;4335.51282073;4235.38461539;4956.79487333;4043.33333292;229.99999153;-0.00000896;4339.23076944;6334.48718394;4208.58974352;4173.20512807;4301.79487194;4236.15384616;4235.89743590;4205.12820506
4204.74358968;4203.84615378;4234.61538462;4234.48717949;5092.56410437;4043.71794830;229.99999153;-0.00000896;4339.87179508;6309.10256848;4208.58974352;4170.76923063;4372.43589772;4235.38461539;4235.89743590;4205.12820506
4204.48717942;4203.20512814;4401.15384651;4235.38461539;5125.12820701;4043.58974318;229.99999153;-0.00000896;4365.25641054;6306.15385054;4208.46153840;4169.35897422;4401.15384651;4234.87179488;4236.15384616;4205.12820506
4204.10256404;4203.20512814;4208.71794865;4235.25641026;5057.56410431;4041.79487138;229.99999153;-0.00000896;4365.51282079;6309.61538900;4208.46153840;4143.20512800;4304.35897450;4235.38461539;4235.12820513;4205.12820506
4203.84615378;4202.56410250;4272.30769238;4235.89743590;5022.43589911;4042.05128164;229.99999153;-0.00000896;4340.38461560;6308.84615823;4208.84615378;4170.51282038;4339.61538483;4235.64102564;4235.64102564;4205.12820506
4204.35897429;4202.94871788;4207.17948711;4235.38461539;5058.84615559;4042.82051241;229.99999153;-0.00000896;4339.48717970;6307.05128643;4208.97435891;4171.15384602;4369.48717977;4236.66666667;4235.38461539;4205.12820506
4204.48717942;4202.94871788;4467.30769280;4234.87179488;4963.71795025;4041.41025600;229.99999153;-0.00000896;4338.71794893;6307.43590182;4208.20512814;4173.07692294;4272.17948725;4236.92307693;4234.61538462;4205.12820506
4205.38461532;4202.94871788;4300.38461553;4233.97435898;5125.12820701;4040.25640984;229.99999153;-0.00000896;4338.20512842;6307.94872233;4205.89743583;4175.76923063;4401.66666702;4235.25641026;4235.51282052;4205.12820506
4204.35897429;4202.30769224;4271.53846161;4236.15384616;5055.25641200;4044.48717907;229.99999153;-0.00000896;4339.87179508;6307.69231207;4234.10256411;4172.17948704;4302.05128219;4235.76923077;4235.51282052;4205.12820506
4205.25641019;4203.71794865;4208.46153840;4234.48717949;5059.48718123;4041.53846113;229.99999153;-0.00000896;4339.74358996;6337.43590189;4208.33333327;4173.84615371;4372.05128233;4235.25641026;4235.64102564;4205.12820506
4203.71794865;4203.07692301;4366.28205156;4235.38461539;5094.87179668;4043.46153805;229.99999153;-0.00000896;4339.74358996;6335.64103009;4208.20512814;4173.97435884;4398.71794907;4235.76923077;4236.02564103;4205.12820506
4204.74358968;4202.69230763;4430.76923119;4235.38461539;5089.23077104;4042.94871754;229.99999153;-0.00000896;4339.74358996;6307.05128643;4208.33333327;4170.25641012;4234.10256411;4234.61538462;4235.76923077;4205.12820506
4205.25641019;4201.92307686;4269.23076930;4234.61538462;4963.07692461;4043.58974318;229.99999153;-0.00000896;4339.23076944;6334.61538907;4207.94871788;4173.97435884;4337.56410278;4236.92307693;4235.89743590;4205.12820506
4203.97435891;4203.07692301;4336.92307714;4236.28205129;5122.17948906;4041.92307651;229.99999153;-0.00000896;4340.25641047;6309.61538900;4207.30769224;4170.12820499;4272.69230777;4235.12820513;4235.89743590;4205.12820506
4204.99999993;4202.43589737;4302.69230784;4235.25641026;5056.15384789;4041.92307651;229.99999153;-0.00000896;4340.12820534;6308.84615823;4206.79487173;4172.43589730;4369.23076951;4234.35897436;4236.02564103;4205.12820506
4204.61538455;4202.30769224;4335.38461560;4235.64102564;5088.33333514;4040.38461497;229.99999153;-0.00000896;4340.12820534;6307.05128643;4205.12820506;4171.28205115;4333.20512842;4208.97435891;4235.76923077;4205.12820506
4203.84615378;4203.46153840;4332.56410278;4236.41025641;4896.02564242;4041.66666625;229.99999153;-0.00000896;4339.61538483;6306.41026079;4206.53846147;4173.07692294;4367.82051310;4234.10256411;4236.02564103;4205.12820506
4204.10256404;4203.46153840;4273.07692315;4235.38461539;5253.07692523;4040.25640984;229.99999153;-0.00000896;4339.61538483;6309.23077361;4234.10256411;4172.17948704;4340.38461560;4234.74358975;4235.12820513;4205.12820506
4204.23076917;4202.82051275;4238.97435898;4235.12820513;5022.05128372;4041.02564061;229.99999153;-0.00000896;4339.10256431;6308.84615823;4208.46153840;4171.02564089;4204.23076917;4237.30769231;4236.02564103;4205.12820506
4203.84615378;4202.17948711;4301.41025655;4235.51282052;5027.56410424;4040.64102523;229.99999153;-0.00000896;4339.48717970;6306.15385054;4208.58974352;4172.43589730;4335.51282073;4236.53846154;4236.28205129;4205.12820506
4204.10256404;4202.05128199;4371.92307720;4235.25641026;5087.43589925;4039.61538420;229.99999153;-0.00000896;4340.25641047;6306.79487618;4208.33333327;4172.17948704;4332.69230790;4235.64102564;4235.89743590;4205.12820506
4205.25641019;4176.02564089;4271.66666674;4235.64102564;5124.61538650;4039.61538420;229.99999153;-0.00000896;4340.25641047;6307.82051720;4208.71794865;4174.61538448;4306.28205142;4235.38461539;4234.87179488;4205.12820506
4205.12820506;4201.28205122;4268.84615392;4234.87179488;5057.05128379;4041.15384574;229.99999153;-0.00000896;4339.87179508;6308.07692746;4208.58974352;4170.64102551;4238.58974359;4236.53846154;4236.02564103;4205.12820506
4205.38461532;4202.43589737;4338.07692329;4235.25641026;4995.00000160;4040.89743548;229.99999153;-0.00000896;4339.10256431;6305.38461977;4208.46153840;4170.51282038;4268.84615392;4235.38461539;4236.79487180;4205.12820506
4205.25641019;4202.17948711;4236.92307693;4235.51282052;5022.17948885;4043.07692266;-0.00000896;-0.00000896;4339.48717970;6306.79487618;4208.58974352;4174.35897422;4301.41025655;4234.87179488;4236.02564103;4205.12820506
4205.64102558;4202.56410250;4468.33333382;4235.25641026;5060.89743764;4041.41025600;39.48717060;-0.00000896;4339.48717970;6307.94872233;4208.33333327;4169.74358961;4270.89743597;4234.61538462;4208.71794865;4205.12820506
4204.99999993;4202.82051275;4269.87179495;4235.76923077;5023.84615552;4040.64102523;229.99999153;-0.00000896;4339.87179508;6305.76923515;4233.84615385;4171.53846140;4267.43589751;4235.51282052;4235.89743590;4205.12820506
4204.61538455;4203.84615378;4239.35897436;4235.38461539;5058.20512995;4043.07692266;39.48717060;-0.00000896;4339.35897457;6307.30769669;4209.10256404;4173.07692294;4241.41025641;4208.71794865;4235.89743590;4205.12820506
4204.23076917;4202.94871788;4304.74358989;4234.74358975;5025.89743757;4042.05128164;-0.00000896;-0.00000896;4339.10256431;6308.97436336;4208.58974352;4171.92307679;4168.33333320;4235.76923077;4236.15384616;4205.12820506
4204.74358968;4203.07692301;4207.17948711;4235.64102564;4989.23077083;4040.89743548;-0.00000896;-0.00000896;4339.74358996;6307.05128643;4208.97435891;4172.43589730;4273.46153853;4236.41025641;4235.76923077;4205.12820506
4204.10256404;4202.94871788;4465.00000049;4235.64102564;5125.25641214;4042.69230728;-0.00000896;-0.00000896;4340.38461560;6307.69231207;4206.66666660;4174.48717935;4203.20512814;4236.41025641;4235.25641026;4205.12820506
4205.12820506;4203.71794865;4273.07692315;4234.48717949;5029.10256577;4041.53846113;-0.00000896;-0.00000896;4340.00000021;6309.48718387;4234.10256411;4174.23076910;4205.76923070;4208.84615378;4236.15384616;4205.12820506
4204.35897429;4202.30769224;4208.71794865;4235.89743590;5027.69230936;4041.66666625;-0.00000896;-0.00000896;4339.61538483;6307.43590182;4208.46153840;4172.30769217;4171.15384602;4234.74358975;4235.76923077;4205.12820506
4205.38461532;4202.69230763;4266.92307700;4235.00000000;5092.94871976;4042.30769189;-0.00000896;-0.00000896;4338.97435919;6305.89744028;4208.71794865;4172.43589730;4110.25640998;4236.41025641;4235.76923077;4205.12820506
4204.48717942;4202.82051275;4237.17948718;4235.38461539;4992.94871955;4040.64102523;-0.00000896;-0.00000896;4339.10256431;6309.10256848;4208.58974352;4170.89743576;4171.92307679;4235.64102564;4233.97435898;4205.12820506
4205.12820506;4202.94871788;4336.02564124;4235.51282052;4962.30769384;4039.99999959;-0.00000896;-0.00000896;4340.25641047;6334.74359419;4208.58974352;4171.15384602;4239.10256411;4235.25641026;4235.76923077;4205.12820506
4204.87179481;4202.56410250;4173.58974345;4235.51282052;5124.74359162;4041.66666625;-0.00000896;-0.00000896;4339.10256431;6307.30769669;4208.58974352;4170.89743576;4105.76923050;4236.92307693;4235.89743590;4205.12820506
4205.38461532;4202.82051275;4273.84615392;4235.89743590;4930.89743736;4041.92307651;-0.00000896;-0.00000896;4339.48717970;6335.12820958;4208.58974352;4172.43589730;4234.10256411;4234.74358975;4235.89743590;4205.12820506
4204.87179481;4203.71794865;4370.51282079;4235.00000000;5218.97436106;4039.35897395;-0.00000896;-0.00000896;4339.74358996;6337.56410702;4208.58974352;4173.33333320;4267.30769238;4235.00000000;4234.23076923;4205.12820506
4204.23076917;4202.69230763;4372.43589772;4234.87179488;5024.61538629;4040.25640984;-0.00000896;-0.00000896;4365.64102592;6335.89744035;4208.58974352;4171.79487166;4301.15384630;4209.10256404;4236.15384616;4205.12820506
4204.87179481;4203.33333327;4401.02564138;4235.76923077;4990.76923237;4041.15384574;-0.00000896;-0.00000896;4338.84615406;6336.53846599;4208.58974352;4172.82051269;4404.61538497;4234.74358975;4235.51282052;4205.12820506
4204.48717942;4201.79487173;4303.84615399;4235.76923077;5125.89743778;4041.28205087;-0.00000896;-0.00000896;4338.84615406;6337.94872240;4208.58974352;4173.20512807;4436.92307734;4234.48717949;4236.66666667;4205.12820506
4205.25641019;4202.56410250;4299.61538476;4234.61538462;5060.38461713;4043.07692266;-0.00000896;-0.00000896;4340.38461560;6337.94872240;4208.58974352;4171.92307679;4464.74359023;4234.61538462;4235.76923077;4205.12820506
4204.48717942;4201.92307686;4398.20512856;4236.02564103;4994.35897596;4039.87179446;-0.00000896;-0.00000896;4337.94871816;6337.17949163;4208.58974352;4169.35897422;4437.82051324;4236.02564103;4235.12820513;4205.12820506
4205.25641019;4201.28205122;4338.46153867;4235.00000000;5022.56410424;4041.66666625;-0.00000896;-0.00000896;4338.84615406;6335.38461984;4208.97435891;4172.94871781;4529.48718012;4237.17948718;4235.64102564;4205.12820506
4204.61538455;4202.30769224;4370.64102592;4236.15384616;5060.51282225;4040.76923036;-0.00000896;-0.00000896;4338.07692329;6334.87179932;4208.71794865;4171.41025628;4533.58974422;4235.64102564;4235.76923077;4205.12820506
4204.99999993;4202.17948711;4268.46153853;4234.87179488;5062.43589918;4038.07692266;-0.00000896;-0.00000896;4340.12820534;6334.48718394;4207.56410250;4173.71794858;4431.79487222;4237.05128206;4235.76923077;4205.12820506
4203.97435891;4202.05128199;4370.38461567;4235.00000000;5026.41025808;4040.64102523;-0.00000896;-0.00000896;4338.97435919;6335.12820958;4208.20512814;4174.87179474;4430.89743632;4234.87179488;4235.38461539;4205.12820506
4204.74358968;4202.94871788;4337.43589765;4235.25641026;5055.89743764;4038.07692266;-0.00000896;-0.00000896;4339.61538483;6335.25641471;4208.84615378;4174.10256397;4595.00000077;4236.28205129;4235.38461539;4205.12820506
4204.87179481;4203.07692301;4431.66666709;4234.23076923;5060.76923251;4041.53846113;-0.00000896;-0.00000896;4338.71794893;6307.56410695;4209.10256404;4172.30769217;4565.12820583;4236.53846154;4235.76923077;4205.12820506
4204.48717942;4202.94871788;4403.20512856;4235.12820513;5158.07692503;4040.38461497;-0.00000896;-0.00000896;4339.35897457;6304.10256848;4208.84615378;4171.92307679;4595.89743667;4234.61538462;4236.02564103;4205.12820506
4205.12820506;4203.07692301;4269.35897443;4235.25641026;5029.23077090;4039.87179446;-0.00000896;-0.00000896;4339.48717970;6307.82051720;4208.58974352;4170.89743576;4535.25641089;4235.25641026;4235.76923077;4205.12820506
4204.61538455;4203.84615378;4333.20512842;4235.25641026;5024.61538629;4040.38461497;229.99999153;-0.00000896;4340.25641047;6307.56410695;4209.10256404;4172.82051269;4599.48718026;4237.82051282;4235.00000000;4205.12820506
4204.99999993;4203.33333327;4399.87179522;4235.12820513;5029.23077090;4041.79487138;229.99999153;-0.00000896;4338.20512842;6335.00000445;4233.84615385;4169.99999986;4532.43589807;4235.51282052;4235.76923077;4205.12820506
4204.61538455;4203.20512814;4404.10256445;4235.25641026;5059.61538636;4039.87179446;229.99999153;-0.00000896;4365.12820541;6309.61538900;4208.71794865;4172.69230756;4664.74359065;4236.41025641;4236.02564103;4205.12820506
4204.87179481;4203.71794865;4337.56410278;4234.74358975;4996.66666827;4042.17948677;229.99999153;-0.00000896;4365.64102592;6334.48718394;4208.33333327;4172.69230756;4465.25641075;4234.87179488;4235.76923077;4205.12820506
4204.87179481;4202.17948711;4399.35897471;4235.64102564;5091.92307873;4038.20512779;-0.00000896;-0.00000896;4340.12820534;6306.02564541;4208.71794865;4171.02564089;4504.23076979;4235.38461539;4234.87179488;4205.12820506
4205.51282045;4201.53846147;4467.69230818;4236.02564103;4991.15384776;4039.23076882;-0.00000896;-0.00000896;4339.61538483;6308.58974797;4207.82051275;4201.15384609;4368.71794900;4208.20512814;4236.02564103;4205.12820506
4205.64102558;4203.07692301;4365.51282079;4234.61538462;5061.92307866;4042.17948677;229.99999153;-0.00000896;4365.12820541;6307.05128643;4234.74358975;4169.61538448;4535.00000063;4237.94871795;4234.61538462;4205.12820506
4204.23076917;4203.33333327;4333.07692329;4235.51282052;4996.79487340;4042.94871754;-0.00000896;-0.00000896;4339.87179508;6308.20513259;4234.23076923;4170.38461525;4435.00000042;4236.53846154;4236.02564103;4205.12820506
4204.74358968;4203.58974352;4336.53846175;4235.12820513;5120.64102752;4040.76923036;229.99999153;-0.00000896;4339.10256431;6334.74359419;4209.10256404;4169.35897422;4307.56410271;4235.00000000;4237.43589744;4205.12820506
4204.48717942;4203.71794865;4372.69230797;4235.25641026;5089.48718130;4039.61538420;-0.00000896;-0.00000896;4339.74358996;6335.51282496;4208.71794865;4141.79487159;4267.43589751;4237.94871795;4235.89743590;4205.12820506
4204.48717942;4203.20512814;4370.51282079;4235.64102564;5062.17948892;4041.02564061;229.99999153;-0.00000896;4339.35897457;6336.79487625;4208.46153840;4171.41025628;4302.17948732;4236.66666667;4208.97435891;4205.12820506
4204.48717942;4202.43589737;4433.71794914;4235.76923077;4897.30769370;4039.99999959;-0.00000896;-0.00000896;4339.61538483;6335.12820958;4208.71794865;4171.66666653;4271.15384623;4235.89743590;4235.51282052;4205.12820506
4204.61538455;4202.43589737;4336.02564124;4235.89743590;5061.28205302;4041.02564061;229.99999153;-0.00000896;4339.74358996;6334.35897881;4233.84615385;4173.46153833;4335.64102585;4236.02564103;4235.38461539;4205.12820506
4204.87179481;4202.82051275;4368.58974387;4235.25641026;5055.25641200;4070.25640991;-0.00000896;-0.00000896;4365.64102592;6334.87179932;4207.94871788;4171.92307679;4267.82051289;4238.20512821;4235.25641026;4205.12820506
4204.99999993;4204.35897429;4274.74358982;4234.48717949;4963.07692461;4039.48717907;229.99999153;-0.00000896;4337.30769252;6339.23077368;4208.97435891;4172.05128192;4168.97435884;4237.05128206;4235.51282052;4205.12820506
4203.71794865;4202.17948711;4337.30769252;4234.87179488;4959.87179640;3942.94871733;-0.00000896;-0.00000896;4335.25641047;6433.33333799;4206.28205122;4172.94871781;4468.71794921;4237.17948718;4236.02564103;4205.12820506
4176.15384602;4171.66666653;4433.46153888;4206.66666660;5120.51282239;3910.25640957;229.99999153;-0.00000896;4470.38461587;6473.07692781;4234.23076923;4174.48717935;4335.25641047;4235.76923077;4235.89743590;4172.30769217
4168.84615371;4104.23076896;4405.89743625;4267.17948725;4993.58974519;3943.58974297;-0.00000896;-0.00000896;4530.25641089;6273.20513252;4208.71794865;4175.12820499;4306.92307707;4236.92307693;4236.66666667;4172.30769217
4140.25641005;4168.84615371;4463.97435946;4203.97435891;4992.43589904;4406.02564138;229.99999153;-0.00000896;4039.23076882;5813.33333667;4208.71794865;4173.46153833;4433.07692350;4235.00000000;4236.02564103;4139.48717928
4240.00000000;4204.23076917;3350.89743403;4204.87179481;4765.25641137;4070.25640991;-0.00000896;-0.00000896;4169.48717935;6334.74359419;4208.58974352;4173.58974345;3876.92307616;4235.64102564;4235.89743590;4237.94871795
4301.02564117;4174.23076910;4794.23077042;4174.61538448;4961.92307846;3809.87179397;229.99999153;-0.00000896;4406.02564138;6669.61538976;4208.58974352;4172.43589730;3842.43589661;4235.64102564;4235.51282052;4303.46153860
4269.48717956;4172.43589730;3879.61538385;4168.84615371;5160.89743785;4044.74358933;-0.00000896;-0.00000896;4600.00000077;6373.58974811;4233.84615385;4172.30769217;3679.10256293;4234.48717949;4237.30769231;4270.64102571
4202.69230763;4172.94871781;4695.25641123;4201.66666660;5090.00000181;3847.56410173;229.99999153;-0.00000896;4433.07692350;6239.23077347;4208.84615378;4171.79487166;4234.23076923;4234.10256411;4207.94871788;4205.12820506
4140.89743569;4141.28205108;3875.12820437;4208.33333327;4993.33333494;4007.56410208;-0.00000896;-0.00000896;4335.64102585;6335.38461984;4208.58974352;4169.74358961;4236.92307693;4235.00000000;4235.89743590;4139.48717928
4141.28205108;4173.58974345;3484.74358815;4208.46153840;5054.87179661;4043.71794830;229.99999153;-0.00000896;4337.43589765;6308.07692746;4208.58974352;4173.07692294;4371.41025669;4235.51282052;4234.35897436;4139.48717928
4172.17948704;4175.64102551;5453.58974616;4208.46153840;5120.76923265;4043.97435856;-0.00000896;-0.00000896;4335.51282073;6238.71795296;4207.17948711;4172.43589730;4203.46153840;4235.51282052;4235.76923077;4172.30769217
4173.97435884;4208.20512814;3943.20512758;4207.56410250;4960.76923230;4044.35897395;229.99999153;-0.00000896;4402.94871830;6270.64102995;4208.71794865;4173.07692294;4340.38461560;4235.76923077;4234.74358975;4172.30769217
4201.92307686;4266.79487187;4206.15384609;4235.51282052;5155.25641221;4043.97435856;-0.00000896;-0.00000896;4368.33333362;6372.69231221;4208.71794865;4176.28205115;4239.35897436;4208.97435891;4235.76923077;4205.12820506
4207.43589737;4238.71794872;4730.00000105;4236.15384616;4993.07692468;4040.12820472;229.99999153;-0.00000896;4340.25641047;6368.07692760;4208.33333327;4170.51282038;4436.79487222;4235.64102564;4235.64102564;4205.12820506
4208.46153840;4204.48717942;4366.28205156;4235.25641026;5123.46154034;4039.35897395;-0.00000896;-0.00000896;4339.87179508;6335.76923522;4208.71794865;4172.69230756;4628.46153930;4235.25641026;4235.51282052;4205.12820506
4206.53846147;4175.76923063;4306.28205142;4236.53846154;5058.71795046;4041.15384574;229.99999153;-0.00000896;4366.41025669;6308.58974797;4208.58974352;4171.53846140;4430.76923119;4235.64102564;4238.07692308;4205.12820506
4206.28205122;4172.17948704;4563.46153916;4237.94871795;4960.89743743;4043.84615343;-0.00000896;-0.00000896;4368.07692336;6341.28205573;4209.10256404;4172.17948704;4530.51282114;4234.61538462;4235.76923077;4205.12820506
4206.41025634;4169.10256397;4565.00000070;4237.94871795;4963.33333487;4009.10256362;229.99999153;-0.00000896;4365.25641054;6307.05128643;4208.46153840;4168.97435884;4436.02564145;4236.41025641;4236.02564103;4205.12820506
4203.07692301;4172.30769217;3745.64102460;4236.15384616;4960.76923230;4009.23076875;39.48717060;-0.00000896;4369.10256438;6301.92308130;4208.46153840;4171.53846140;4533.97435960;4233.97435898;4235.51282052;4205.12820506
4203.46153840;4203.33333327;4760.00000112;4235.89743590;4990.51282211;4010.64102516;8244.35898284;-0.00000896;4367.30769259;6307.94872233;4206.53846147;4172.05128192;4271.79487187;4234.10256411;4235.64102564;4205.12820506
4207.30769224;4203.20512814;4434.23076965;4236.02564103;5087.30769412;4009.87179439;-0.00000896;-0.00000896;4338.46153867;6305.64103002;4233.84615385;4170.64102551;4336.02564124;4237.05128206;4236.66666667;4205.12820506
4205.76923070;4206.02564096;4074.99999966;4235.64102564;4957.05128358;4037.17948677;229.99999153;-0.00000896;4340.25641047;6335.51282496;4208.33333327;4173.84615371;4365.89743618;4235.64102564;4235.38461539;4205.12820506
4202.69230763;4207.30769224;4235.51282052;4235.38461539;5093.46154027;4038.84615343;229.99999153;-0.00000896;4367.43589772;6338.07692753;4208.07692301;4172.43589730;4397.94871830;4235.25641026;4235.89743590;4205.12820506
4203.58974352;4204.23076917;4763.46153958;4234.74358975;4990.00000160;4038.58974318;229.99999153;-0.00000896;4367.94871823;6308.58974797;4233.97435898;4171.28205115;4370.76923105;4236.28205129;4235.64102564;4205.12820506
4203.58974352;4202.30769224;4169.35897422;4235.38461539;5059.87179661;4037.17948677;229.99999153;-0.00000896;4366.66666695;6303.97436336;4205.12820506;4173.20512807;4503.46153902;4234.35897436;4234.48717949;4205.12820506
4203.58974352;4201.79487173;4366.41025669;4235.25641026;5024.10256577;4041.28205087;-0.00000896;-0.00000896;4366.79487208;6308.33333771;4234.10256411;4169.61538448;4371.02564131;4235.38461539;4235.89743590;4205.12820506
4205.89743583;4175.38461525;4467.43589793;4235.51282052;5154.48718144;4037.69230728;-0.00000896;-0.00000896;4367.43589772;6308.58974797;4208.33333327;4174.87179474;4337.82051303;4236.02564103;4236.41025641;4205.12820506
4206.92307686;4201.79487173;4369.23076951;4235.51282052;5059.35897610;4010.89743541;-0.00000896;-0.00000896;4365.38461567;6308.71795310;4208.20512814;4169.35897422;4270.12820520;4234.87179488;4235.25641026;4205.12820506
4204.23076917;4204.87179481;4237.69230770;4235.00000000;4959.35897589;4038.71794830;-0.00000896;-0.00000896;4365.38461567;6336.15385060;4207.17948711;4176.02564089;4269.23076930;4236.15384616;4235.51282052;4205.12820506
4203.07692301;4203.46153840;4468.20512870;4235.38461539;5123.71795060;4011.02564054;-0.00000896;-0.00000896;4366.41025669;6335.25641471;4234.74358975;4173.46153833;4432.30769273;4235.64102564;4235.76923077;4205.12820506
4203.20512814;4203.07692301;4274.74358982;4235.12820513;4962.05128358;4037.17948677;-0.00000896;-0.00000896;4368.33333362;6306.79487618;4205.51282045;4170.38461525;4206.92307686;4235.12820513;4235.76923077;4205.12820506
4204.99999993;4203.97435891;4174.87179474;4235.25641026;4960.00000153;4037.94871754;-0.00000896;-0.00000896;4366.92307720;6308.97436336;4234.10256411;4171.66666653;4269.23076930;4235.25641026;4235.25641026;4205.12820506
4205.64102558;4203.46153840;4339.35897457;4234.35897436;5055.38461713;4039.87179446;-0.00000896;-0.00000896;4366.79487208;6337.56410702;4207.94871788;4173.58974345;4402.56410292;4234.23076923;4235.89743590;4205.12820506
4205.38461532;4201.79487173;4405.38461574;4235.64102564;5059.61538636;4011.41025593;-0.00000896;-0.00000896;4367.17948746;6336.41026086;4208.84615378;4170.64102551;4366.92307720;4235.64102564;4235.76923077;4205.12820506
4204.87179481;4203.33333327;4203.97435891;4234.10256411;5057.43589918;4038.20512779;-0.00000896;-0.00000896;4366.41025669;6336.41026086;4205.89743583;4171.79487166;4270.89743597;4234.48717949;4236.02564103;4205.12820506
4205.12820506;4204.10256404;4371.02564131;4235.89743590;5125.12820701;4038.71794830;-0.00000896;-0.00000896;4366.66666695;6336.53846599;4234.10256411;4172.82051269;4336.02564124;4236.02564103;4235.64102564;4205.12820506
4204.61538455;4202.82051275;4367.94871823;4234.87179488;4991.92307853;4037.05128164;-0.00000896;-0.00000896;4366.28205156;6336.28205573;4205.64102558;4169.74358961;4335.51282073;4234.23076923;4235.51282052;4205.12820506
4204.10256404;4203.07692301;4206.53846147;4234.35897436;5024.87179654;4036.92307651;-0.00000896;-0.00000896;4368.71794900;6336.28205573;4207.69230763;4169.61538448;4471.02564152;4236.02564103;4234.87179488;4205.12820506
4204.74358968;4203.07692301;4597.17948795;4235.76923077;5060.38461713;4039.87179446;-0.00000896;-0.00000896;4366.92307720;6336.41026086;4208.33333327;4172.30769217;4235.76923077;4234.61538462;4235.64102564;4205.12820506
4205.64102558;4202.43589737;4339.48717970;4234.74358975;4956.79487333;4010.89743541;-0.00000896;-0.00000896;4367.30769259;6309.48718387;4233.84615385;4168.58974345;4402.05128240;4237.43589744;4235.76923077;4205.12820506
4204.23076917;4203.58974352;4140.64102544;4234.74358975;5124.61538650;4039.48717907;-0.00000896;-0.00000896;4366.02564131;6309.35897874;4208.46153840;4171.66666653;4241.79487180;4234.61538462;4235.38461539;4205.12820506
4203.71794865;4203.97435891;4240.38461539;4236.28205129;4961.28205281;4011.92307644;-0.00000896;-0.00000896;4366.79487208;6308.71795310;4208.58974352;4172.43589730;4332.82051303;4234.61538462;4234.48717949;4205.12820506
4204.87179481;4202.69230763;4534.35897499;4235.12820513;5060.00000174;4011.53846106;-0.00000896;-0.00000896;4366.66666695;6334.35897881;4208.71794865;4172.05128192;4371.41025669;4234.74358975;4236.28205129;4205.12820506
4204.61538455;4202.94871788;4140.12820492;4234.23076923;4990.12820673;4012.05128157;-0.00000896;-0.00000896;4365.38461567;6305.64103002;4207.69230763;4174.61538448;4402.17948753;4236.66666667;4235.51282052;4205.12820506
4204.35897429;4203.46153840;4405.38461574;4235.64102564;5090.00000181;4011.02564054;-0.00000896;-0.00000896;4367.17948746;6309.23077361;4209.10256404;4171.66666653;4300.76923091;4236.79487180;4236.15384616;4205.12820506
4204.35897429;4203.71794865;4307.05128219;4234.48717949;5023.71795039;4037.30769189;-0.00000896;-0.00000896;4366.66666695;6308.33333771;4208.71794865;4172.94871781;4268.71794879;4237.17948718;4235.25641026;4205.12820506
4205.38461532;4203.07692301;4302.69230784;4235.12820513;5028.33333500;4011.15384567;-0.00000896;-0.00000896;4366.41025669;6306.02564541;4208.84615378;4172.30769217;4306.92307707;4235.89743590;4234.48717949;4205.12820506
4204.10256404;4203.46153840;4240.89743590;4235.00000000;4990.25641186;4011.53846106;-0.00000896;-0.00000896;4366.53846182;6337.56410702;4208.33333327;4171.41025628;4369.74359003;4236.66666667;4235.89743590;4205.12820506
4203.84615378;4203.33333327;4498.84615441;4235.25641026;5091.53846335;4012.17948670;-0.00000896;-0.00000896;4366.02564131;6335.25641471;4209.10256404;4172.82051269;4274.74358982;4234.35897436;4235.51282052;4205.12820506
4204.23076917;4204.74358968;4300.64102578;4235.64102564;4992.17948878;4037.05128164;229.99999153;-0.00000896;4365.89743618;6335.38461984;4208.07692301;4171.28205115;4334.23076944;4208.97435891;4236.02564103;4205.12820506
4203.84615378;4203.20512814;4137.56410236;4234.61538462;4958.20512974;4036.92307651;-0.00000896;-0.00000896;4367.56410285;6336.41026086;4233.84615385;4172.56410243;4339.10256431;4235.00000000;4235.00000000;4205.12820506
4205.25641019;4203.20512814;4437.82051324;4235.64102564;4995.38461699;4037.17948677;8271.02564958;-0.00000896;4367.17948746;6336.41026086;4208.46153840;4171.28205115;4302.56410271;4234.74358975;4235.64102564;4205.12820506
4204.35897429;4202.43589737;4271.53846161;4235.89743590;5025.76923244;4040.51282010;8212.94872636;-0.00000896;4367.30769259;6306.41026079;4208.84615378;4175.12820499;4334.61538483;4235.25641026;4235.64102564;4205.12820506
4203.97435891;4203.07692301;4405.76923112;4234.87179488;5061.53846328;4039.23076882;229.99999153;-0.00000896;4366.79487208;6335.51282496;4208.46153840;4172.56410243;4402.69230804;4234.87179488;4235.89743590;4205.12820506
4205.12820506;4203.46153840;4239.74358975;4235.25641026;4992.69230929;4039.10256369;229.99999153;-0.00000896;4366.53846182;6334.48718394;4208.84615378;4170.76923063;4273.46153853;4237.05128206;4235.12820513;4205.12820506
4203.71794865;4202.82051275;4335.51282073;4235.76923077;4991.41025801;4037.17948677;229.99999153;-0.00000896;4367.05128233;6308.84615823;4208.84615378;4172.82051269;4273.97435905;4234.74358975;4236.41025641;4205.12820506
4204.35897429;4201.79487173;4366.02564131;4235.00000000;4958.84615538;4039.61538420;229.99999153;-0.00000896;4366.28205156;6334.48718394;4208.58974352;4171.28205115;4334.23076944;4234.61538462;4235.89743590;4205.12820506
4204.35897429;4202.17948711;4366.28205156;4235.51282052;5154.74359169;4037.05128164;229.99999153;-0.00000896;4366.41025669;6306.53846592;4208.71794865;4171.15384602;4398.58974394;4234.74358975;4236.02564103;4205.12820506
4204.48717942;4203.33333327;4371.92307720;4234.10256411;4962.94871948;4011.41025593;229.99999153;-0.00000896;4366.15384644;6335.25641471;4208.84615378;4171.92307679;4272.30769238;4235.51282052;4235.38461539;4205.12820506
4204.48717942;4203.07692301;4234.61538462;4235.12820513;4994.48718109;4010.25640977;229.99999153;-0.00000896;4367.94871823;6308.58974797;4208.84615378;4171.79487166;4338.20512842;4233.84615385;4208.97435891;4205.12820506
4205.25641019;4203.84615378;4273.07692315;4235.38461539;5029.48718116;4038.46153805;229.99999153;-0.00000896;4367.05128233;6308.97436336;4208.84615378;4172.56410243;4301.53846168;4235.38461539;4235.76923077;4205.12820506
4204.99999993;4203.33333327;4338.58974380;4234.61538462;5024.23077090;4038.33333292;229.99999153;-0.00000896;4367.30769259;6336.79487625;4208.84615378;4173.84615371;4303.84615399;4235.76923077;4239.10256411;4205.12820506
4204.35897429;4204.10256404;4469.87179536;4236.15384616;5186.79487381;4039.48717907;229.99999153;-0.00000896;4365.64102592;6334.35897881;4208.84615378;4172.69230756;4306.02564117;4234.61538462;4235.76923077;4205.12820506
4204.23076917;4202.82051275;4273.46153853;4235.64102564;4827.05128331;4011.92307644;229.99999153;-0.00000896;4367.30769259;6335.12820958;4208.84615378;4174.10256397;4369.87179515;4235.89743590;4236.92307693;4205.12820506
4204.74358968;4202.43589737;4239.35897436;4233.97435898;5125.00000188;4039.23076882;229.99999153;-0.00000896;4366.53846182;6308.33333771;4208.84615378;4172.82051269;4306.53846168;4234.74358975;4235.89743590;4205.12820506
4205.12820506;4202.69230763;4366.79487208;4234.48717949;4926.79487326;4039.10256369;229.99999153;-0.00000896;4366.02564131;6306.92308130;4208.84615378;4170.51282038;4272.56410264;4235.25641026;4235.38461539;4205.12820506
4204.10256404;4203.20512814;4241.79487180;4236.15384616;5087.69230950;4040.38461497;229.99999153;-0.00000896;4366.41025669;6303.58974797;4208.97435891;4172.30769217;4371.92307720;4234.87179488;4236.66666667;4205.12820506
4204.61538455;4203.33333327;4398.71794907;4234.35897436;5023.84615552;4038.20512779;229.99999153;-0.00000896;4366.53846182;6308.07692746;4233.84615385;4171.92307679;4437.56410298;4236.41025641;4236.02564103;4205.12820506
4204.74358968;4202.94871788;4266.79487187;4235.64102564;5060.38461713;4037.43589702;229.99999153;-0.00000896;4366.41025669;6308.20513259;4209.10256404;4171.28205115;4268.07692315;4235.12820513;4235.38461539;4205.12820506
4204.61538455;4203.33333327;4332.94871816;4234.87179488;5027.69230936;4012.17948670;229.99999153;-0.00000896;4366.92307720;6307.30769669;4209.10256404;4168.33333320;4339.35897457;4236.66666667;4235.25641026;4205.12820506
4204.35897429;4202.69230763;4366.79487208;4235.64102564;5026.41025808;4037.17948677;229.99999153;-0.00000896;4365.89743618;6307.05128643;4209.10256404;4170.51282038;4305.76923091;4234.48717949;4234.87179488;4205.12820506
4204.23076917;4204.23076917;4338.46153867;4235.64102564;4995.12820673;4037.82051241;229.99999153;-0.00000896;4365.64102592;6309.61538900;4209.10256404;4172.43589730;4372.05128233;4234.35897436;4235.12820513;4205.12820506
4204.35897429;4203.33333327;4365.25641054;4234.61538462;5022.82051449;4037.05128164;229.99999153;-0.00000896;4366.02564131;6307.69231207;4209.10256404;4175.25641012;4339.23076944;4235.25641026;4236.41025641;4205.12820506
4204.23076917;4202.82051275;4270.76923084;4235.64102564;5026.28205295;4039.48717907;229.99999153;-0.00000896;4366.92307720;6308.46154284;4208.97435891;4171.53846140;4304.10256425;4235.12820513;4235.64102564;4205.12820506
4204.87179481;4203.46153840;4338.46153867;4236.02564103;5022.56410424;4036.92307651;229.99999153;-0.00000896;4365.64102592;6307.82051720;4208.84615378;4170.89743576;4398.46153881;4236.28205129;4235.51282052;4205.12820506
4204.23076917;4203.20512814;4300.51282066;4235.00000000;5058.97436072;4038.58974318;229.99999153;-0.00000896;4367.56410285;6336.02564548;4208.84615378;4172.82051269;4306.92307707;4233.97435898;4235.64102564;4205.12820506
4204.74358968;4203.58974352;4365.64102592;4235.64102564;4991.15384776;4037.82051241;229.99999153;-0.00000896;4365.89743618;6308.97436336;4208.84615378;4170.89743576;4433.71794914;4235.89743590;4234.23076923;4205.12820506
4203.71794865;4203.07692301;4403.20512856;4235.25641026;5093.46154027;4010.89743541;229.99999153;-0.00000896;4368.33333362;6307.82051720;4209.10256404;4174.74358961;4300.38461553;4235.00000000;4234.10256411;4205.12820506
4204.99999993;4203.20512814;4175.25641012;4235.25641026;4995.00000160;4037.30769189;229.99999153;-0.00000896;4366.28205156;6306.66667105;4209.10256404;4142.43589723;4240.12820513;4236.02564103;4236.02564103;4205.12820506
4204.23076917;4203.84615378;4339.35897457;4235.51282052;4991.41025801;4012.05128157;229.99999153;-0.00000896;4366.28205156;6307.56410695;4233.84615385;4171.41025628;4333.33333355;4235.64102564;4234.48717949;4205.12820506
4204.74358968;4203.33333327;4270.12820520;4234.87179488;5189.87179689;4037.82051241;229.99999153;-0.00000896;4365.38461567;6307.17949156;4233.84615385;4173.07692294;4496.66666723;4235.12820513;4235.38461539;4205.12820506
4205.25641019;4203.07692301;4369.10256438;4235.76923077;4991.53846314;4038.46153805;229.99999153;-0.00000896;4366.66666695;6309.10256848;4209.10256404;4172.17948704;4268.33333341;4236.28205129;4235.38461539;4205.12820506
4205.38461532;4202.30769224;4366.02564131;4234.48717949;5121.41025829;4039.48717907;229.99999153;-0.00000896;4365.76923105;6307.43590182;4209.10256404;4143.46153826;4404.23076958;4234.48717949;4235.64102564;4205.12820506
4204.35897429;4202.43589737;4237.69230770;4235.00000000;4929.10256557;4039.10256369;229.99999153;-0.00000896;4367.82051310;6306.66667105;4209.10256404;4170.89743576;4266.92307700;4235.38461539;4235.64102564;4205.12820506
4204.35897429;4202.43589737;4301.15384630;4236.15384616;5092.43589925;4038.33333292;229.99999153;-0.00000896;4365.76923105;6334.61538907;4209.10256404;4170.12820499;4371.41025669;4234.61538462;4235.51282052;4205.12820506
4204.61538455;4203.07692301;4399.61538497;4234.87179488;5024.74359142;4038.20512779;229.99999153;-0.00000896;4366.66666695;6307.43590182;4209.10256404;4171.79487166;4304.48717963;4234.74358975;4235.38461539;4205.12820506
4204.61538455;4203.84615378;4268.33333341;4234.87179488;4959.23077076;4038.33333292;-0.00000896;-0.00000896;4366.79487208;6307.94872233;4208.84615378;4173.58974345;4373.20512849;4235.89743590;4235.51282052;4205.12820506
4204.35897429;4202.05128199;4369.35897464;4235.89743590;5153.84615580;4039.23076882;-0.00000896;-0.00000896;4367.05128233;6308.33333771;4209.10256404;4172.05128192;4304.61538476;4236.15384616;4235.51282052;4205.12820506
4204.35897429;4203.33333327;4303.07692322;4235.38461539;4925.76923223;4037.05128164;229.99999153;-0.00000896;4365.76923105;6334.61538907;4209.10256404;4174.99999986;4304.35897450;4234.61538462;4208.97435891;4205.12820506
4204.74358968;4202.56410250;4241.92307693;4234.35897436;5029.35897603;4039.74358933;-0.00000896;-0.00000896;4366.28205156;6334.74359419;4209.10256404;4171.02564089;4471.02564152;4236.41025641;4235.38461539;4205.12820506
4204.87179481;4203.07692301;4303.71794886;4234.87179488;5058.20512995;4039.61538420;-0.00000896;-0.00000896;4366.79487208;6307.94872233;4209.10256404;4172.43589730;4303.33333348;4236.53846154;4235.25641026;4205.12820506
4204.99999993;4203.07692301;4372.82051310;4234.35897436;4930.00000146;4038.97435856;-0.00000896;-0.00000896;4366.53846182;6308.84615823;4208.84615378;4170.12820499;4370.64102592;4235.76923077;4235.51282052;4205.12820506
4204.35897429;4203.33333327;4306.79487194;4235.76923077;5055.51282225;4037.82051241;-0.00000896;-0.00000896;4365.25641054;6309.35897874;4208.71794865;4170.89743576;4267.17948725;4236.41025641;4235.64102564;4205.12820506
4204.10256404;4203.46153840;4307.56410271;4234.74358975;4892.56410396;4037.56410215;-0.00000896;-0.00000896;4365.51282079;6308.58974797;4208.97435891;4172.69230756;4333.97435919;4235.51282052;4235.76923077;4205.12820506
4204.23076917;4203.58974352;4300.51282066;4236.28205129;5120.89743778;4037.94871754;-0.00000896;-0.00000896;4366.02564131;6306.92308130;4208.71794865;4172.17948704;4436.92307734;4237.69230770;4235.25641026;4205.12820506
4205.25641019;4202.69230763;4401.28205163;4235.76923077;4992.17948878;4037.30769189;-0.00000896;-0.00000896;4366.41025669;6306.28205566;4208.84615378;4172.94871781;4239.61538462;4234.61538462;4235.51282052;4205.12820506
4203.97435891;4202.94871788;4333.71794893;4234.61538462;5021.66666834;4039.23076882;-0.00000896;-0.00000896;4366.53846182;6309.10256848;4233.97435898;4171.02564089;4301.28205142;4234.74358975;4235.51282052;4205.12820506
4204.99999993;4203.07692301;4302.82051296;4235.51282052;5121.79487367;4036.92307651;-0.00000896;-0.00000896;4366.79487208;6334.48718394;4208.97435891;4171.53846140;4435.00000042;4234.87179488;4235.12820513;4205.12820506
4204.99999993;4203.07692301;4338.97435919;4208.97435891;4930.76923223;4038.84615343;-0.00000896;-0.00000896;4367.43589772;6336.79487625;4208.46153840;4171.92307679;4273.71794879;4234.48717949;4235.89743590;4205.12820506
4204.35897429;4202.17948711;4304.35897450;4236.15384616;5028.58974526;4011.53846106;-0.00000896;-0.00000896;4367.69230797;6335.38461984;4233.84615385;4170.64102551;4403.20512856;4233.97435898;4208.33333327;4205.12820506
4204.35897429;4202.82051275;4299.74358989;4235.12820513;5089.48718130;4038.84615343;-0.00000896;-0.00000896;4367.17948746;6334.61538907;4208.71794865;4169.74358961;4208.71794865;4235.64102564;4235.64102564;4205.12820506
4204.35897429;4203.84615378;4175.89743576;4234.61538462;4959.74359128;4038.20512779;-0.00000896;-0.00000896;4367.17948746;6335.51282496;4208.84615378;4171.15384602;4435.12820555;4236.53846154;4235.64102564;4205.12820506
4205.76923070;4202.05128199;4437.43589786;4235.25641026;4960.12820666;4011.53846106;-0.00000896;-0.00000896;4366.66666695;6336.53846599;4208.71794865;4170.76923063;4267.43589751;4235.51282052;4235.51282052;4205.12820506
4204.74358968;4202.94871788;4336.41025662;4234.87179488;4996.28205288;4038.20512779;-0.00000896;-0.00000896;4367.17948746;6336.28205573;4208.84615378;4171.53846140;4405.89743625;4235.89743590;4235.89743590;4205.12820506
4204.87179481;4203.58974352;4269.23076930;4235.12820513;5054.35897610;4009.74358926;-0.00000896;-0.00000896;4366.15384644;6309.61538900;4208.58974352;4172.69230756;4333.97435919;4236.79487180;4235.64102564;4205.12820506
4204.74358968;4203.58974352;4268.97435905;4236.15384616;5021.66666834;4038.71794830;-0.00000896;-0.00000896;4366.66666695;6308.58974797;4208.97435891;4171.15384602;4270.89743597;4236.66666667;4235.64102564;4205.12820506
4204.48717942;4203.46153840;4306.02564117;4235.12820513;5027.82051449;4011.02564054;-0.00000896;-0.00000896;4366.79487208;6307.94872233;4208.84615378;4172.82051269;4435.89743632;4236.79487180;4236.15384616;4205.12820506
4204.48717942;4202.56410250;4433.20512863;4234.87179488;5028.20512988;4038.97435856;-0.00000896;-0.00000896;4367.30769259;6334.35897881;4208.58974352;4169.99999986;4271.15384623;4235.38461539;4235.25641026;4205.12820506
4204.10256404;4202.82051275;4333.58974380;4235.89743590;4994.87179647;4038.71794830;-0.00000896;-0.00000896;4366.53846182;6308.46154284;4208.58974352;4169.61538448;4305.00000014;4235.76923077;4234.35897436;4205.12820506
4205.64102558;4203.20512814;4300.25641040;4234.35897436;5125.12820701;4037.69230728;-0.00000896;-0.00000896;4366.41025669;6308.58974797;4208.84615378;4170.51282038;4365.76923105;4234.61538462;4235.25641026;4205.12820506
4204.10256404;4203.58974352;4206.41025634;4234.87179488;5022.69230936;4037.43589702;-0.00000896;-0.00000896;4367.17948746;6308.97436336;4208.33333327;4171.53846140;4306.66666681;4234.23076923;4235.89743590;4205.12820506
4204.48717942;4202.82051275;4273.58974366;4234.48717949;4996.28205288;4037.69230728;-0.00000896;-0.00000896;4365.51282079;6308.33333771;4209.10256404;4172.94871781;4369.48717977;4235.38461539;4235.76923077;4205.12820506
4204.35897429;4203.71794865;4432.43589786;4235.25641026;5057.94871969;4037.56410215;-0.00000896;-0.00000896;4366.92307720;6306.41026079;4208.20512814;4171.02564089;4434.10256452;4208.58974352;4236.53846154;4205.12820506
4205.38461532;4201.92307686;4236.79487180;4235.25641026;5027.17948885;4037.30769189;-0.00000896;-0.00000896;4366.15384644;6307.69231207;4208.71794865;4172.82051269;4332.56410278;4235.64102564;4235.12820513;4205.12820506
4204.10256404;4202.05128199;4269.61538469;4234.87179488;4992.69230929;4037.82051241;229.99999153;-0.00000896;4365.38461567;6306.15385054;4208.84615378;4172.82051269;4368.07692336;4236.92307693;4236.15384616;4205.12820506
4204.99999993;4203.07692301;4237.43589744;4234.74358975;5055.00000174;4038.97435856;8343.07693177;-0.00000896;4365.12820541;6308.97436336;4208.71794865;4170.64102551;4271.02564110;4235.76923077;4235.25641026;4205.12820506
4204.87179481;4203.07692301;4337.17948739;4234.61538462;4990.51282211;4037.43589702;8341.53847023;-0.00000896;4366.79487208;6309.61538900;4208.58974352;4170.89743576;4437.30769273;4209.10256404;4235.76923077;4205.12820506
4204.61538455;4202.82051275;4337.05128226;4235.38461539;5062.05128379;4010.64102516;-0.00000896;-0.00000896;4367.43589772;6308.46154284;4208.97435891;4172.69230756;4339.35897457;4234.23076923;4235.64102564;4205.12820506
4204.48717942;4203.84615378;4238.58974359;4235.12820513;5027.82051449;4010.12820465;229.99999153;-0.00000896;4367.69230797;6336.15385060;4208.33333327;4173.97435884;4268.58974366;4234.23076923;4235.51282052;4205.12820506
4204.99999993;4202.82051275;4300.38461553;4235.00000000;4994.61538622;4037.56410215;229.99999153;-0.00000896;4367.56410285;6308.07692746;4208.33333327;4175.25641012;4307.56410271;4235.76923077;4235.00000000;4205.12820506
4205.12820506;4201.53846147;4239.35897436;4235.25641026;5028.07692475;4012.05128157;229.99999153;-0.00000896;4366.92307720;6335.76923522;4208.71794865;4173.20512807;4434.10256452;4234.35897436;4235.76923077;4205.12820506
4205.25641019;4203.07692301;4372.43589772;4235.76923077;5087.82051463;4038.07692266;229.99999153;-0.00000896;4367.82051310;6308.46154284;4208.58974352;4171.92307679;4336.28205149;4235.64102564;4235.51282052;4205.12820506
4204.87179481;4202.94871788;4366.66666695;4234.74358975;4994.74359135;4037.43589702;229.99999153;-0.00000896;4366.02564131;6337.30769676;4208.58974352;4170.89743576;4400.25641061;4234.48717949;4236.53846154;4205.12820506
4204.61538455;4202.17948711;4207.30769224;4235.00000000;5120.64102752;4037.17948677;229.99999153;-0.00000896;4366.53846182;6336.28205573;4208.71794865;4173.07692294;4334.10256431;4235.25641026;4235.64102564;4205.12820506
4204.74358968;4203.33333327;4273.97435905;4235.51282052;4930.12820659;4038.20512779;229.99999153;-0.00000896;4365.89743618;6335.64103009;4208.07692301;4173.07692294;4272.82051289;4237.56410257;4235.89743590;4205.12820506
4204.10256404;4203.58974352;4404.74359009;4235.76923077;5058.20512995;4038.71794830;229.99999153;-0.00000896;4340.12820534;6335.25641471;4208.46153840;4171.15384602;4333.97435919;4235.00000000;4237.05128206;4205.12820506
4205.25641019;4203.07692301;4366.15384644;4234.74358975;5156.02564298;4038.46153805;229.99999153;-0.00000896;4365.89743618;6338.84615830;4233.97435898;4171.53846140;4366.92307720;4236.02564103;4235.00000000;4205.12820506
4203.97435891;4203.46153840;4234.87179488;4235.38461539;4929.74359121;4037.69230728;229.99999153;-0.00000896;4366.15384644;6338.33333778;4208.20512814;4171.92307679;4338.58974380;4234.74358975;4235.51282052;4205.12820506
4204.35897429;4203.33333327;4333.46153867;4233.97435898;5127.94871983;4038.33333292;229.99999153;-0.00000896;4365.51282079;6307.05128643;4208.84615378;4170.38461525;4304.74358989;4234.48717949;4235.12820513;4205.12820506
4204.48717942;4202.82051275;4208.97435891;4235.51282052;5026.66666834;4039.23076882;229.99999153;-0.00000896;4366.28205156;6308.20513259;4208.84615378;4175.38461525;4340.38461560;4233.97435898;4208.84615378;4205.12820506
4204.87179481;4203.20512814;4372.43589772;4235.38461539;4961.79487333;4011.15384567;229.99999153;-0.00000896;4367.30769259;6335.89744035;4208.71794865;4169.48717935;4339.87179508;4234.74358975;4235.64102564;4205.12820506
4204.74358968;4203.58974352;4400.00000035;4234.61538462;5061.41025815;4038.71794830;229.99999153;-0.00000896;4367.05128233;6308.07692746;4208.58974352;4174.61538448;4340.00000021;4235.38461539;4235.64102564;4205.12820506
4203.58974352;4202.82051275;4301.53846168;4235.76923077;4993.71795032;4037.56410215;229.99999153;-0.00000896;4366.28205156;6334.74359419;4208.46153840;4173.71794858;4366.41025669;4237.05128206;4208.46153840;4205.12820506
4204.10256404;4202.43589737;4201.28205122;4234.87179488;4897.94871934;4011.28205080;229.99999153;-0.00000896;4366.53846182;6336.15385060;4208.71794865;4169.99999986;4369.61538490;4235.12820513;4235.64102564;4205.12820506
4204.48717942;4203.58974352;4339.23076944;4235.25641026;4958.46153999;4011.79487131;229.99999153;-0.00000896;4368.33333362;6334.87179932;4208.07692301;4142.94871774;4300.64102578;4235.38461539;4237.56410257;4205.12820506
4204.48717942;4202.94871788;4434.61538504;4234.87179488;4990.38461699;4037.43589702;229.99999153;-0.00000896;4367.05128233;6335.76923522;4207.69230763;4172.17948704;4502.05128261;4235.76923077;4235.12820513;4205.12820506
4205.12820506;4203.58974352;4333.71794893;4235.25641026;5024.35897603;4037.94871754;229.99999153;-0.00000896;4365.51282079;6309.23077361;4234.10256411;4173.46153833;4368.20512849;4208.97435891;4235.38461539;4205.12820506
4205.51282045;4203.71794865;4335.51282073;4236.66666667;5029.23077090;4038.33333292;229.99999153;-0.00000896;4367.43589772;6338.58974804;4233.97435898;4169.10256397;4465.25641075;4236.28205129;4235.12820513;4205.12820506
4204.61538455;4203.20512814;4273.33333341;4236.28205129;4930.38461685;4039.10256369;229.99999153;-0.00000896;4367.56410285;6334.61538907;4208.97435891;4174.10256397;4367.43589772;4236.02564103;4236.15384616;4205.12820506
4204.48717942;4204.10256404;4369.10256438;4235.51282052;5060.89743764;4037.56410215;229.99999153;-0.00000896;4366.92307720;6305.89744028;4208.97435891;4171.02564089;4469.87179536;4235.51282052;4235.76923077;4205.12820506
4204.74358968;4203.58974352;4335.76923098;4235.12820513;5088.33333514;4037.69230728;229.99999153;-0.00000896;4366.15384644;6308.58974797;4209.10256404;4172.69230756;4432.43589786;4236.02564103;4235.51282052;4205.12820506
4205.51282045;4204.10256404;4433.71794914;4234.61538462;4929.23077069;4011.41025593;229.99999153;-0.00000896;4367.17948746;6308.46154284;4208.84615378;4143.20512800;4470.00000049;4235.51282052;4234.87179488;4205.12820506
4205.12820506;4203.58974352;4332.43589765;4234.61538462;5121.15384803;4037.05128164;229.99999153;-0.00000896;4367.05128233;6306.53846592;4208.20512814;4169.99999986;4306.41025655;4235.25641026;4235.00000000;4205.12820506
4205.25641019;4203.20512814;4368.58974387;4235.00000000;4862.56410389;4011.15384567;229.99999153;-0.00000896;4367.05128233;6308.97436336;4208.58974352;4171.66666653;4371.02564131;4235.89743590;4237.17948718;4205.12820506
4204.99999993;4204.10256404;4336.53846175;4235.12820513;5093.97436078;4038.07692266;229.99999153;-0.00000896;4366.28205156;6309.35897874;4208.84615378;4173.58974345;4503.20512876;4234.61538462;4235.64102564;4205.12820506
4204.10256404;4203.46153840;4403.84615420;4235.89743590;4989.74359135;4037.69230728;229.99999153;-0.00000896;4366.92307720;6335.12820958;4208.84615378;4171.28205115;4438.20512863;4235.76923077;4234.87179488;4205.12820506
4204.48717942;4204.61538455;4402.05128240;4235.25641026;5029.61538629;4037.82051241;229.99999153;-0.00000896;4366.02564131;6335.51282496;4234.10256411;4171.41025628;4367.94871823;4235.76923077;4235.25641026;4205.12820506
4204.74358968;4203.97435891;4306.02564117;4235.12820513;4996.02564263;4038.84615343;229.99999153;-0.00000896;4365.25641054;6334.87179932;4208.46153840;4172.82051269;4368.84615413;4234.35897436;4235.76923077;4205.12820506
4204.99999993;4203.84615378;4241.66666667;4234.23076923;4926.53846300;4037.30769189;229.99999153;-0.00000896;4366.53846182;6335.64103009;4233.84615385;4172.94871781;4332.30769252;4234.23076923;4235.38461539;4205.12820506
4204.87179481;4202.69230763;4467.05128254;4235.76923077;4928.58974505;4039.23076882;229.99999153;-0.00000896;4367.05128233;6338.07692753;4208.58974352;4170.51282038;4500.00000056;4208.97435891;4234.74358975;4205.12820506
4204.61538455;4203.71794865;4372.30769259;4234.23076923;5024.10256577;4039.35897395;229.99999153;-0.00000896;4366.28205156;6336.41026086;4208.97435891;4170.38461525;4402.82051317;4233.84615385;4235.38461539;4205.12820506
4204.23076917;4203.46153840;4306.66666681;4235.38461539;5057.05128379;4038.07692266;-0.00000896;-0.00000896;4365.76923105;6334.35897881;4208.84615378;4173.46153833;4471.28205177;4234.74358975;4235.51282052;4205.12820506
4204.61538455;4203.07692301;4272.69230777;4235.12820513;4958.84615538;4037.94871754;-0.00000896;-0.00000896;4365.64102592;6309.61538900;4208.71794865;4169.48717935;4365.51282079;4233.97435898;4236.02564103;4205.12820506
4204.35897429;4203.46153840;4240.25641026;4235.12820513;5027.69230936;4012.05128157;229.99999153;-0.00000896;4368.07692336;6309.23077361;4233.84615385;4169.23076910;4500.00000056;4236.53846154;4235.64102564;4205.12820506
4204.23076917;4203.46153840;4436.41025683;4235.25641026;5021.79487347;4037.82051241;-0.00000896;-0.00000896;4366.92307720;6337.82051727;4208.84615378;4172.43589730;4496.79487235;4235.76923077;4236.02564103;4205.12820506
4204.10256404;4202.69230763;4337.30769252;4235.12820513;5091.79487361;4038.58974318;-0.00000896;-0.00000896;4367.30769259;6309.61538900;4233.84615385;4171.92307679;4437.56410298;4235.12820513;4235.38461539;4205.12820506
4204.48717942;4203.33333327;4235.89743590;4235.51282052;5023.07692475;4037.17948677;-0.00000896;-0.00000896;4366.92307720;6336.41026086;4208.97435891;4172.69230756;4433.46153888;4237.17948718;4235.51282052;4205.12820506
4203.97435891;4203.33333327;4333.97435919;4235.89743590;5028.33333500;4038.58974318;-0.00000896;-0.00000896;4366.41025669;6336.79487625;4208.97435891;4172.05128192;4437.43589786;4236.53846154;4235.38461539;4205.12820506
4204.48717942;4202.82051275;4240.00000000;4235.00000000;4988.97436058;4037.43589702;-0.00000896;-0.00000896;4368.07692336;6308.84615823;4233.84615385;4143.46153826;4596.92307769;4236.15384616;4236.41025641;4205.12820506
4204.87179481;4203.20512814;4433.20512863;4235.12820513;5121.66666855;4041.79487138;-0.00000896;-0.00000896;4339.61538483;6335.64103009;4208.84615378;4172.43589730;4433.84615427;4233.84615385;4235.64102564;4205.12820506
4205.12820506;4203.07692301;4303.71794886;4234.87179488;4925.51282198;4040.38461497;-0.00000896;-0.00000896;4365.76923105;6337.30769676;4233.84615385;4172.05128192;4469.10256459;4236.02564103;4234.10256411;4205.12820506
4203.97435891;4203.46153840;4303.84615399;4235.38461539;5159.10256605;4039.99999959;-0.00000896;-0.00000896;4365.12820541;6335.12820958;4208.97435891;4174.61538448;4403.84615420;4236.02564103;4235.38461539;4205.12820506
4203.71794865;4204.23076917;4241.92307693;4235.51282052;4989.35897596;4039.74358933;-0.00000896;-0.00000896;4366.92307720;6337.43590189;4233.84615385;4173.46153833;4436.28205170;4236.02564103;4236.02564103;4205.12820506
4204.10256404;4203.20512814;4405.64102599;4235.00000000;5087.82051463;4038.33333292;-0.00000896;-0.00000896;4366.92307720;6340.12820958;4208.46153840;4171.02564089;4403.97435933;4235.25641026;4236.15384616;4205.12820506
4203.97435891;4203.97435891;4267.94871802;4235.12820513;4993.58974519;4040.64102523;-0.00000896;-0.00000896;4367.30769259;6340.00000445;4208.46153840;4173.58974345;4338.33333355;4235.64102564;4235.25641026;4205.12820506
4204.35897429;4202.69230763;4236.66666667;4235.00000000;4960.89743743;4038.97435856;-0.00000896;-0.00000896;4367.30769259;6335.00000445;4233.97435898;4172.69230756;4333.33333355;4234.35897436;4236.53846154;4205.12820506
4205.25641019;4202.17948711;4208.20512814;4234.87179488;5153.46154041;4040.12820472;-0.00000896;-0.00000896;4366.15384644;6337.82051727;4208.97435891;4170.12820499;4366.02564131;4235.64102564;4235.38461539;4205.12820506
4204.74358968;4202.94871788;4307.43589758;4236.02564103;4958.71795025;4039.23076882;-0.00000896;-0.00000896;4365.51282079;6336.53846599;4208.97435891;4171.02564089;4267.82051289;4236.15384616;4235.38461539;4205.12820506
4205.38461532;4202.17948711;4370.64102592;4234.48717949;5026.02564270;4038.84615343;-0.00000896;-0.00000896;4366.92307720;6334.74359419;4209.10256404;4171.92307679;4338.33333355;4208.71794865;4235.64102564;4205.12820506
4203.33333327;4204.10256404;4303.71794886;4235.25641026;5056.79487354;4039.99999959;-0.00000896;-0.00000896;4367.17948746;6305.12820951;4209.10256404;4171.92307679;4107.56410229;4235.51282052;4235.51282052;4205.12820506
4202.94871788;4204.23076917;4240.12820513;4234.87179488;4963.07692461;4038.58974318;-0.00000896;-0.00000896;4368.33333362;6304.87179925;4209.10256404;4170.38461525;4206.79487173;4235.64102564;4235.12820513;4205.12820506
4203.58974352;4205.25641019;4237.69230770;4235.38461539;5093.84615566;4038.84615343;-0.00000896;-0.00000896;4369.10256438;6308.71795310;4209.10256404;4171.02564089;4136.41025621;4208.46153840;4236.53846154;4205.12820506
4203.20512814;4203.97435891;4307.30769245;4235.12820513;4960.25641179;4036.92307651;-0.00000896;-0.00000896;4366.79487208;6307.82051720;4209.10256404;4173.84615371;4143.33333313;4236.02564103;4235.76923077;4205.12820506
4203.46153840;4203.20512814;4272.17948725;4236.15384616;5094.87179668;4011.53846106;-0.00000896;-0.00000896;4368.58974387;6307.05128643;4209.10256404;4171.53846140;4206.41025634;4235.38461539;4235.76923077;4205.12820506
4204.87179481;4201.92307686;4403.58974394;4235.51282052;5087.69230950;4041.66666625;-0.00000896;-0.00000896;4366.53846182;6335.12820958;4209.10256404;4172.82051269;4103.46153819;4234.23076923;4235.51282052;4205.12820506
4206.02564096;4201.15384609;4240.25641026;4236.41025641;5061.53846328;4040.38461497;-0.00000896;-0.00000896;4340.38461560;6309.61538900;4208.84615378;4172.82051269;4136.02564082;4235.38461539;4234.61538462;4205.12820506
4205.38461532;4174.99999986;4300.00000014;4236.66666667;4926.41025787;4038.71794830;-0.00000896;-0.00000896;4365.38461567;6306.92308130;4208.58974352;4171.41025628;4143.46153826;4235.51282052;4236.41025641;4205.12820506
4205.12820506;4174.23076910;4302.69230784;4236.28205129;5029.10256577;4039.23076882;-0.00000896;-0.00000896;4340.12820534;6305.00000438;4208.58974352;4176.15384602;4205.51282045;4235.25641026;4235.51282052;4205.12820506
4205.12820506;4174.10256397;4240.64102564;4237.43589744;5022.05128372;4038.33333292;-0.00000896;-0.00000896;4339.23076944;6305.89744028;4208.71794865;4173.33333320;4207.69230763;4235.51282052;4237.17948718;4205.12820506
4204.23076917;4175.51282038;4270.64102571;4236.02564103;5125.89743778;4011.15384567;229.99999153;-0.00000896;4366.28205156;6336.53846599;4208.97435891;4172.94871781;4110.51282024;4236.79487180;4235.38461539;4205.12820506
4204.61538455;4202.30769224;4170.89743576;4234.48717949;4924.10256557;4037.30769189;229.99999153;-0.00000896;4365.38461567;6307.05128643;4208.33333327;4171.28205115;4137.17948697;4235.25641026;4237.94871795;4205.12820506
4204.10256404;4203.71794865;4175.12820499;4233.97435898;5088.20513002;4012.05128157;229.99999153;-0.00000896;4336.28205149;6305.00000438;4208.97435891;4173.84615371;4240.38461539;4236.66666667;4235.51282052;4205.12820506
4204.87179481;4204.35897429;4365.76923105;4233.97435898;4989.48718109;4007.43589695;229.99999153;-0.00000896;4367.56410285;6306.79487618;4208.97435891;4171.92307679;4139.74358954;4235.51282052;4235.51282052;4205.12820506
4203.46153840;4202.94871788;4173.07692294;4236.53846154;5056.02564277;4011.66666618;-0.00000896;-0.00000896;4370.89743618;6336.53846599;4208.84615378;4172.17948704;4173.46153833;4236.28205129;4235.64102564;4205.12820506
4203.33333327;4201.15384609;4271.53846161;4236.53846154;5027.94871962;4005.51282003;65.64101682;-0.00000896;4366.02564131;6340.76923522;4209.10256404;4174.23076910;4299.74358989;4235.64102564;4235.89743590;4205.12820506
4205.64102558;4174.35897422;4011.92307644;4235.76923077;4991.02564263;4044.74358933;229.99999153;-0.00000896;4367.82051310;6302.43590182;4208.58974352;4172.56410243;4139.35897415;4235.76923077;4235.51282052;4205.12820506
4206.15384609;4175.64102551;4370.51282079;4239.48717949;4995.38461699;4011.41025593;65.64101682;-0.00000896;4371.66666695;6303.33333771;4208.46153840;4172.17948704;4076.41025607;4234.61538462;4235.76923077;4205.12820506
4207.82051275;4172.94871781;4270.64102571;4241.66666667;4996.02564263;4039.61538420;229.99999153;-0.00000896;4372.43589772;6308.71795310;4233.84615385;4170.89743576;4402.17948753;4236.92307693;4208.71794865;4205.12820506
4235.38461539;4173.84615371;4273.07692315;4267.56410264;5060.12820687;4041.53846113;65.64101682;-0.00000896;4332.69230790;6307.17949156;4208.46153840;4172.56410243;4207.94871788;4234.61538462;4235.89743590;4237.94871795
4240.64102564;4172.82051269;4268.46153853;4267.94871802;5061.15384789;3978.84615329;229.99999153;-0.00000896;4339.10256431;6308.58974797;4209.10256404;4171.79487166;4274.48717956;4233.84615385;4237.30769231;4237.94871795
4241.53846154;4170.38461525;4208.46153840;4241.79487180;4995.12820673;4037.69230728;65.64101682;-0.00000896;4339.48717970;6308.46154284;4233.84615385;4171.53846140;4236.79487180;4233.97435898;4235.38461539;4237.94871795
4240.51282052;4169.35897422;4274.61538469;4241.66666667;5061.53846328;3979.10256355;229.99999153;-0.00000896;4336.53846175;6339.87179932;4208.58974352;4170.76923063;4240.64102564;4236.66666667;4235.38461539;4237.94871795
4238.58974359;4141.79487159;4466.28205177;4240.00000000;5022.82051449;4004.99999952;65.64101682;-0.00000896;4307.17948732;6367.94872247;4208.58974352;4170.89743576;4175.51282038;4238.07692308;4235.12820513;4237.94871795
4233.84615385;4141.79487159;4269.74358982;4236.79487180;5025.51282218;4005.38461490;229.99999153;-0.00000896;4337.94871816;6337.43590189;4208.58974352;4172.69230756;4433.33333375;4237.30769231;4235.00000000;4237.94871795
4204.99999993;4171.02564089;4302.56410271;4237.82051282;5126.53846342;3978.46153791;65.64101682;-0.00000896;4334.61538483;6306.79487618;4208.58974352;4171.02564089;4076.92307658;4236.53846154;4235.25641026;4205.12820506
4203.07692301;4172.94871781;4370.25641054;4236.66666667;4960.12820666;3979.35897381;229.99999153;-0.00000896;4335.64102585;6305.89744028;4208.20512814;4171.66666653;4207.94871788;4237.05128206;4237.56410257;4205.12820506
4202.82051275;4201.66666660;4202.56410250;4235.00000000;5159.35897631;3977.17948663;65.64101682;-0.00000896;4339.10256431;6309.10256848;4208.71794865;4174.23076910;4137.82051262;4237.43589744;4235.51282052;4205.12820506
4204.10256404;4205.64102558;4267.17948725;4234.10256411;4992.69230929;4007.30769183;229.99999153;-0.00000896;4339.87179508;6305.64103002;4207.69230763;4173.20512807;3972.17948663;4236.66666667;4235.89743590;4205.12820506
4204.48717942;4206.79487173;4336.15384637;4235.00000000;5159.74359169;4009.74358926;65.64101682;-0.00000896;4338.07692329;6334.61538907;4208.84615378;4172.94871781;4140.25641005;4234.61538462;4235.25641026;4205.12820506
4205.51282045;4205.89743583;4135.76923056;4235.00000000;4923.84615531;4010.12820465;229.99999153;-0.00000896;4335.12820534;6307.30769669;4208.07692301;4173.33333320;4137.17948697;4235.89743590;4235.76923077;4205.12820506
4205.12820506;4203.46153840;4301.53846168;4235.38461539;5126.41025829;4011.92307644;65.64101682;-0.00000896;4335.76923098;6307.43590182;4204.61538455;4173.33333320;4333.84615406;4237.30769231;4234.87179488;4205.12820506
4204.23076917;4175.89743576;4333.20512842;4235.89743590;5026.02564270;4009.74358926;229.99999153;-0.00000896;4337.17948739;6309.23077361;4207.82051275;4174.35897422;4268.84615392;4235.76923077;4235.64102564;4205.12820506
4204.35897429;4173.97435884;4405.51282086;4237.05128206;5056.41025815;4007.43589695;65.64101682;-0.00000896;4336.28205149;6307.17949156;4208.46153840;4174.61538448;4372.30769259;4235.89743590;4235.76923077;4205.12820506
4204.99999993;4175.89743576;4237.82051282;4236.15384616;5121.02564291;4007.82051234;229.99999153;-0.00000896;4337.69230790;6307.94872233;4208.84615378;4172.17948704;4238.58974359;4235.76923077;4235.64102564;4205.12820506
4205.12820506;4201.92307686;4367.82051310;4235.38461539;4995.25641186;4006.66666618;65.64101682;-0.00000896;4336.79487201;6305.12820951;4208.20512814;4172.17948704;4335.89743611;4235.64102564;4235.38461539;4205.12820506
4205.25641019;4203.84615378;4398.20512856;4234.87179488;5122.69230957;4008.84615336;229.99999153;-0.00000896;4337.30769252;6308.46154284;4208.58974352;4174.35897422;4436.28205170;4236.53846154;4235.25641026;4205.12820506
4205.12820506;4203.84615378;4398.58974394;4234.87179488;5124.10256598;4006.41025593;65.64101682;-0.00000896;4336.66666688;6308.46154284;4208.97435891;4172.56410243;4503.07692364;4237.69230770;4234.23076923;4205.12820506
4204.23076917;4203.84615378;4372.69230797;4234.35897436;5027.05128372;4006.15384567;229.99999153;-0.00000896;4338.20512842;6335.64103009;4208.97435891;4172.05128192;4569.48718019;4236.92307693;4235.12820513;4205.12820506
4203.33333327;4202.56410250;4274.61538469;4235.25641026;5025.51282218;4006.92307644;65.64101682;-0.00000896;4338.58974380;6308.46154284;4208.46153840;4201.02564096;4530.64102627;4236.79487180;4234.23076923;4205.12820506
4204.23076917;4202.69230763;4432.56410298;4235.51282052;5153.20513015;4006.41025593;229.99999153;-0.00000896;4338.46153867;6306.92308130;4209.10256404;4173.07692294;4565.89743660;4235.64102564;4235.76923077;4205.12820506
4204.99999993;4202.05128199;4430.76923119;4235.76923077;4990.64102724;4006.28205080;65.64101682;-0.00000896;4338.97435919;6335.12820958;4204.74358968;4173.07692294;4498.07692364;4235.51282052;4235.25641026;4205.12820506
4206.02564096;4202.43589737;4371.15384644;4235.25641026;4995.38461699;4005.76923029;229.99999153;-0.00000896;4336.28205149;6307.05128643;4207.69230763;4173.71794858;4405.64102599;4235.51282052;4237.30769231;4205.12820506
4204.99999993;4203.20512814;4369.87179515;4234.48717949;5094.48718130;4004.99999952;99.74358099;-0.00000896;4335.89743611;6309.35897874;4206.79487173;4172.05128192;4569.87179557;4235.00000000;4235.51282052;4205.12820506
4204.48717942;4203.84615378;4273.33333341;4235.51282052;5120.00000188;4007.43589695;35.64101675;-0.00000896;4336.53846175;6334.48718394;4208.20512814;4173.58974345;4334.74358996;4237.17948718;4233.97435898;4205.12820506
4204.23076917;4203.20512814;4270.89743597;4235.12820513;5057.05128379;4008.84615336;-0.00000896;-0.00000896;4336.02564124;6335.51282496;4208.07692301;4173.58974345;4338.84615406;4235.64102564;4234.74358975;4205.12820506
4204.48717942;4203.07692301;4372.82051310;4234.87179488;5024.74359142;4006.53846106;229.99999153;-0.00000896;4337.56410278;6308.84615823;4234.23076923;4168.84615371;4241.66666667;4235.25641026;4234.61538462;4205.12820506
4205.12820506;4203.58974352;4337.94871816;4235.25641026;5028.20512988;4008.33333285;229.99999153;-0.00000896;4338.71794893;6338.46154291;4204.99999993;4173.97435884;4142.82051262;4236.53846154;4235.51282052;4205.12820506
4204.99999993;4203.97435891;4237.69230770;4235.25641026;5061.41025815;4008.71794824;229.99999153;-0.00000896;4338.33333355;6336.15385060;4234.48717949;4173.07692294;4143.07692287;4237.30769231;4236.92307693;4205.12820506
4204.87179481;4204.87179481;4304.87179501;4234.61538462;5095.25641207;4010.64102516;229.99999153;-0.00000896;4338.07692329;6337.30769676;4208.20512814;4172.94871781;4336.02564124;4235.12820513;4235.25641026;4205.12820506
4205.12820506;4202.94871788;4368.46153874;4235.38461539;5023.33333500;4005.51282003;-0.00000896;-0.00000896;4338.46153867;6336.02564548;4208.71794865;4171.92307679;4337.69230790;4235.12820513;4235.12820513;4205.12820506
4203.97435891;4202.69230763;4307.56410271;4234.87179488;5024.61538629;4007.56410208;-0.00000896;-0.00000896;4338.33333355;6334.35897881;4208.07692301;4170.64102551;4534.48718012;4234.74358975;4235.12820513;4205.12820506
4204.61538455;4203.58974352;4337.94871816;4235.64102564;5060.89743764;4009.61538413;-0.00000896;-0.00000896;4337.69230790;6334.61538907;4209.10256404;4173.84615371;4241.02564103;4237.05128206;4235.76923077;4205.12820506
4204.35897429;4202.82051275;4240.51282052;4235.00000000;5092.94871976;4005.38461490;-0.00000896;-0.00000896;4338.46153867;6308.84615823;4208.33333327;4174.23076910;4270.51282059;4236.41025641;4208.07692301;4205.12820506
4204.35897429;4202.69230763;4202.82051275;4235.89743590;5093.84615566;4004.87179439;-0.00000896;-0.00000896;4337.17948739;6334.74359419;4209.10256404;4170.38461525;4238.07692308;4236.15384616;4234.74358975;4205.12820506
4203.97435891;4202.69230763;4333.97435919;4236.02564103;4992.56410417;4005.89743541;-0.00000896;-0.00000896;4338.07692329;6335.38461984;4208.33333327;4174.35897422;4206.92307686;4236.53846154;4235.12820513;4205.12820506
4205.25641019;4203.58974352;4236.92307693;4234.61538462;5090.12820694;4006.53846106;-0.00000896;-0.00000896;4337.94871816;6336.66667112;4209.10256404;4170.76923063;4299.48717963;4237.43589744;4235.76923077;4205.12820506
4204.87179481;4203.07692301;4402.56410292;4235.89743590;5088.84615566;4006.66666618;-0.00000896;-0.00000896;4338.58974380;6309.35897874;4207.43589737;4170.89743576;4207.17948711;4236.28205129;4237.17948718;4205.12820506
4204.48717942;4201.15384609;4273.33333341;4235.76923077;4962.56410410;4007.05128157;-0.00000896;-0.00000896;4339.87179508;6308.58974797;4208.71794865;4175.64102551;4367.69230797;4236.15384616;4235.25641026;4205.12820506
4204.35897429;4201.79487173;4337.30769252;4234.74358975;5058.46154020;4004.61538413;-0.00000896;-0.00000896;4338.46153867;6309.35897874;4207.56410250;4170.64102551;4335.00000021;4234.87179488;4235.64102564;4205.12820506
4204.35897429;4201.79487173;4267.05128212;4235.25641026;4963.07692461;4005.64102516;-0.00000896;-0.00000896;4337.43589765;6308.20513259;4208.58974352;4171.66666653;4434.23076965;4235.64102564;4235.64102564;4205.12820506
4204.87179481;4201.92307686;4372.56410285;4236.02564103;5192.43589945;4004.10256362;-0.00000896;-0.00000896;4337.43589765;6309.48718387;4208.71794865;4171.15384602;4267.43589751;4236.15384616;4207.82051275;4205.12820506
4204.48717942;4202.94871788;4368.58974387;4234.87179488;4956.92307846;4007.56410208;-0.00000896;-0.00000896;4337.69230790;6334.35897881;4208.97435891;4172.17948704;4269.74358982;4235.38461539;4235.51282052;4205.12820506
4204.87179481;4202.94871788;4336.02564124;4235.76923077;5126.53846342;4004.48717900;-0.00000896;-0.00000896;4337.05128226;6335.76923522;4208.58974352;4173.84615371;4272.82051289;4235.12820513;4236.53846154;4205.12820506
4204.74358968;4202.82051275;4334.10256431;4234.87179488;4929.87179633;4006.28205080;-0.00000896;-0.00000896;4336.41025662;6309.61538900;4208.71794865;4172.69230756;4273.20512828;4236.15384616;4235.51282052;4205.12820506
4204.61538455;4202.56410250;4301.15384630;4235.64102564;5093.46154027;4008.97435849;-0.00000896;-0.00000896;4337.69230790;6340.00000445;4209.10256404;4172.43589730;4371.79487208;4236.15384616;4235.64102564;4205.12820506
4205.51282045;4202.56410250;4367.43589772;4235.38461539;5089.10256591;4007.43589695;-0.00000896;-0.00000896;4337.05128226;6336.66667112;4208.84615378;4169.87179474;4339.23076944;4237.43589744;4207.69230763;4205.12820506
4204.23076917;4202.82051275;4206.15384609;4234.87179488;5055.25641200;4008.33333285;-0.00000896;-0.00000896;4337.17948739;6337.56410702;4209.10256404;4173.46153833;4236.15384616;4236.41025641;4235.25641026;4205.12820506
4204.99999993;4203.46153840;4270.12820520;4235.25641026;5028.84615552;4008.20512772;-0.00000896;-0.00000896;4337.30769252;6307.69231207;4208.46153840;4170.51282038;4339.74358996;4235.76923077;4236.15384616;4205.12820506
4205.12820506;4202.30769224;4268.97435905;4235.25641026;4962.94871948;4006.92307644;-0.00000896;-0.00000896;4337.56410278;6337.17949163;4208.71794865;4173.20512807;4268.84615392;4235.25641026;4235.89743590;4205.12820506
4204.35897429;4202.94871788;4304.35897450;4234.87179488;5153.58974554;4007.30769183;-0.00000896;-0.00000896;4338.20512842;6335.76923522;4208.97435891;4171.53846140;4370.00000028;4236.28205129;4235.38461539;4205.12820506
4204.74358968;4201.79487173;4401.41025676;4235.64102564;5091.66666848;4007.30769183;-0.00000896;-0.00000896;4336.66666688;6335.38461984;4208.84615378;4169.74358961;4268.46153853;4208.97435891;4235.25641026;4205.12820506
4204.48717942;4202.17948711;4267.82051289;4235.76923077;5091.02564284;4006.79487131;-0.00000896;-0.00000896;4337.82051303;6309.35897874;4208.33333327;4169.99999986;4339.61538483;4236.53846154;4235.25641026;4205.12820506
4204.87179481;4202.69230763;4307.43589758;4234.87179488;5024.74359142;4005.89743541;-0.00000896;-0.00000896;4337.17948739;6334.87179932;4208.33333327;4169.48717935;4305.38461553;4236.92307693;4236.02564103;4205.12820506
4204.61538455;4203.84615378;4305.00000014;4236.15384616;4992.05128365;4007.56410208;229.99999153;-0.00000896;4336.66666688;6309.10256848;4208.97435891;4169.87179474;4438.46153888;4236.41025641;4236.41025641;4205.12820506
4203.58974352;4203.97435891;4470.38461587;4235.25641026;5190.12820715;4006.41025593;67.43588861;-0.00000896;4336.92307714;6308.20513259;4208.58974352;4172.30769217;4398.71794907;4236.79487180;4235.00000000;4205.12820506
4204.61538455;4202.43589737;4208.46153840;4236.02564103;4930.51282198;4005.51282003;106.53845279;-0.00000896;4335.51282073;6308.20513259;4233.84615385;4170.38461525;4365.51282079;4236.66666667;4209.10256404;4205.12820506
4204.10256404;4202.69230763;4337.43589765;4235.51282052;5121.79487367;4005.51282003;-0.00000896;-0.00000896;4336.79487201;6304.48718387;4208.71794865;4172.17948704;4367.94871823;4235.64102564;4236.79487180;4205.12820506
4204.74358968;4202.56410250;4371.28205156;4235.25641026;4957.17948871;4005.64102516;229.99999153;-0.00000896;4337.30769252;6305.89744028;4208.84615378;4171.41025628;4333.46153867;4235.76923077;4235.76923077;4205.12820506
4204.61538455;4203.07692301;4370.64102592;4236.02564103;5057.94871969;4004.74358926;229.99999153;-0.00000896;4337.17948739;6334.48718394;4208.84615378;4171.02564089;4432.30769273;4236.28205129;4235.51282052;4205.12820506
4204.35897429;4203.07692301;4301.15384630;4234.74358975;5059.48718123;3978.84615329;229.99999153;-0.00000896;4336.41025662;6308.84615823;4208.58974352;4170.38461525;4338.07692329;4236.02564103;4235.12820513;4205.12820506
4205.64102558;4202.82051275;4236.02564103;4234.10256411;5090.64102745;4006.79487131;229.99999153;-0.00000896;4337.30769252;6305.76923515;4208.84615378;4175.12820499;4373.20512849;4236.41025641;4234.35897436;4205.12820506
4205.38461532;4203.84615378;4272.05128212;4235.25641026;5026.41025808;4007.82051234;229.99999153;-0.00000896;4337.94871816;6305.64103002;4208.84615378;4170.51282038;4204.74358968;4235.38461539;4235.12820513;4205.12820506
4203.97435891;4203.84615378;4405.00000035;4235.25641026;4994.10256570;4006.92307644;229.99999153;-0.00000896;4336.41025662;6335.00000445;4208.71794865;4172.30769217;4368.71794900;4236.66666667;4235.12820513;4205.12820506
4204.87179481;4203.84615378;4241.53846154;4234.35897436;5122.69230957;4005.38461490;229.99999153;-0.00000896;4338.46153867;6336.79487625;4233.84615385;4172.17948704;4372.43589772;4236.02564103;4235.89743590;4205.12820506
4204.87179481;4203.20512814;4301.92307707;4234.87179488;4924.23077069;4007.69230721;229.99999153;-0.00000896;4336.66666688;6335.38461984;4209.10256404;4170.64102551;4369.74359003;4236.28205129;4235.38461539;4205.12820506
4204.48717942;4203.20512814;4240.25641026;4235.00000000;5126.02564291;4006.28205080;229.99999153;-0.00000896;4336.15384637;6306.28205566;4209.10256404;4175.51282038;4306.28205142;4236.41025641;4235.64102564;4205.12820506
4204.48717942;4204.48717942;4368.07692336;4235.64102564;5058.20512995;4007.30769183;229.99999153;-0.00000896;4337.17948739;6308.58974797;4208.46153840;4172.82051269;4241.92307693;4236.53846154;4235.51282052;4205.12820506
4204.87179481;4202.56410250;4365.76923105;4235.51282052;4991.92307853;4007.69230721;229.99999153;-0.00000896;4337.17948739;6307.82051720;4233.84615385;4168.20512807;4303.97435912;4237.30769231;4236.28205129;4205.12820506
4204.61538455;4203.46153840;4339.48717970;4234.48717949;5223.33333542;4007.94871747;229.99999153;-0.00000896;4337.30769252;6308.46154284;4209.10256404;4172.05128192;4373.07692336;4235.12820513;4235.51282052;4205.12820506
4204.23076917;4203.97435891;4333.97435919;4235.00000000;4923.58974505;4010.76923029;229.99999153;-0.00000896;4337.69230790;6334.61538907;4209.10256404;4172.05128192;4333.46153867;4233.97435898;4235.25641026;4205.12820506
4204.10256404;4204.87179481;4399.87179522;4235.38461539;5193.46154048;4007.05128157;229.99999153;-0.00000896;4336.41025662;6309.10256848;4208.84615378;4173.20512807;4301.92307707;4236.79487180;4235.25641026;4205.12820506
4204.61538455;4203.07692301;4269.87179495;4235.38461539;5058.71795046;4009.61538413;229.99999153;-0.00000896;4337.43589765;6306.28205566;4233.97435898;4173.71794858;4302.05128219;4236.02564103;4235.51282052;4205.12820506
4204.74358968;4202.43589737;4467.94871844;4234.87179488;4957.43589897;4009.87179439;229.99999153;-0.00000896;4338.07692329;6338.33333778;4207.43589737;4172.69230756;4336.92307714;4237.56410257;4235.64102564;4205.12820506
4204.61538455;4203.07692301;4334.61538483;4234.87179488;5152.82051477;4007.69230721;229.99999153;-0.00000896;4336.92307714;6307.94872233;4234.23076923;4171.53846140;4531.79487242;4235.12820513;4237.30769231;4205.12820506
4203.71794865;4203.07692301;4367.56410285;4234.87179488;5123.20513009;4005.38461490;229.99999153;-0.00000896;4337.82051303;6308.84615823;4208.71794865;4172.82051269;4274.10256418;4236.79487180;4235.64102564;4205.12820506
4204.74358968;4202.30769224;4207.56410250;4235.89743590;5022.69230936;4005.76923029;229.99999153;-0.00000896;4337.17948739;6307.30769669;4209.10256404;4168.97435884;4433.97435940;4236.15384616;4208.84615378;4205.12820506
4204.61538455;4203.33333327;4336.41025662;4235.12820513;5092.43589925;4006.92307644;229.99999153;-0.00000896;4337.69230790;6308.46154284;4208.58974352;4172.69230756;4239.23076923;4235.64102564;4235.38461539;4205.12820506
4204.35897429;4202.82051275;4365.51282079;4235.51282052;4990.64102724;4005.38461490;229.99999153;-0.00000896;4337.69230790;6306.66667105;4208.33333327;4170.89743576;4303.46153860;4235.12820513;4235.00000000;4205.12820506
4204.10256404;4202.30769224;4372.05128233;4235.51282052;4957.69230922;4005.76923029;229.99999153;-0.00000896;4337.94871816;6306.92308130;4208.33333327;4173.84615371;4238.33333334;4235.12820513;4235.25641026;4205.12820506
4204.74358968;4202.82051275;4234.48717949;4235.38461539;5091.53846335;4006.02564054;229.99999153;-0.00000896;4338.58974380;6305.00000438;4208.20512814;4170.12820499;4237.56410257;4235.38461539;4235.51282052;4205.12820506
4204.61538455;4203.20512814;4240.51282052;4234.87179488;5054.35897610;4005.89743541;229.99999153;-0.00000896;4336.79487201;6308.07692746;4208.97435891;4169.61538448;4241.15384616;4235.76923077;4236.79487180;4205.12820506
4204.87179481;4203.33333327;4203.58974352;4234.35897436;4988.71795032;4006.41025593;229.99999153;-0.00000896;4337.17948739;6307.69231207;4208.84615378;4173.07692294;4267.82051289;4236.02564103;4235.25641026;4205.12820506
4204.87179481;4202.94871788;4369.74359003;4235.38461539;5127.05128393;4006.92307644;229.99999153;-0.00000896;4336.66666688;6308.46154284;4208.84615378;4172.05128192;4208.07692301;4236.02564103;4235.12820513;4205.12820506
4204.35897429;4203.07692301;4365.51282079;4235.12820513;5094.87179668;4008.20512772;229.99999153;-0.00000896;4336.15384637;6308.20513259;4208.97435891;4171.79487166;4176.02564089;4235.89743590;4235.64102564;4205.12820506
4203.97435891;4203.58974352;4143.20512800;4235.00000000;5058.33333507;4008.97435849;229.99999153;-0.00000896;4336.28205149;6308.58974797;4208.84615378;4143.46153826;4234.87179488;4236.15384616;4236.02564103;4205.12820506
4204.23076917;4203.58974352;4270.12820520;4235.76923077;5027.94871962;4006.79487131;229.99999153;-0.00000896;4337.05128226;6309.61538900;4208.84615378;4170.12820499;4207.17948711;4234.87179488;4234.87179488;4205.12820506
4203.33333327;4202.30769224;4302.69230784;4236.41025641;4957.43589897;4008.84615336;229.99999153;-0.00000896;4337.56410278;6307.82051720;4208.33333327;4172.30769217;4206.15384609;4236.02564103;4235.76923077;4205.12820506
4204.35897429;4203.46153840;4405.89743625;4235.76923077;5158.20513015;4006.53846106;229.99999153;-0.00000896;4336.02564124;6304.87179925;4208.97435891;4171.15384602;4274.23076930;4237.56410257;4235.25641026;4205.12820506
4204.61538455;4202.05128199;4268.84615392;4235.64102564;4826.02564228;4005.76923029;229.99999153;-0.00000896;4336.66666688;6309.48718387;4208.20512814;4172.05128192;4267.30769238;4234.87179488;4237.43589744;4205.12820506
4204.74358968;4202.43589737;4174.74358961;4235.25641026;5089.10256591;4006.66666618;229.99999153;-0.00000896;4337.30769252;6334.61538907;4207.56410250;4170.89743576;4302.17948732;4237.30769231;4235.12820513;4205.12820506
4204.23076917;4202.82051275;4239.74358975;4235.89743590;4931.02564249;4006.15384567;-0.00000896;-0.00000896;4336.79487201;6335.89744035;4207.94871788;4172.05128192;4266.79487187;4235.76923077;4235.51282052;4205.12820506
4204.74358968;4203.20512814;4301.53846168;4235.38461539;5127.05128393;4006.41025593;8276.79488035;-0.00000896;4336.53846175;6309.10256848;4208.07692301;4171.28205115;4367.30769259;4235.76923077;4234.23076923;4205.12820506
4204.87179481;4202.56410250;4404.23076958;4234.87179488;5061.15384789;4008.97435849;229.99999153;-0.00000896;4335.12820534;6335.89744035;4208.97435891;4171.53846140;4333.71794893;4235.89743590;4235.25641026;4205.12820506
4204.35897429;4203.46153840;4270.12820520;4235.25641026;4928.58974505;4007.05128157;8276.79488035;-0.00000896;4335.89743611;6336.79487625;4207.94871788;4169.23076910;4366.53846182;4236.15384616;4235.38461539;4205.12820506
4205.25641019;4202.94871788;4335.12820534;4235.00000000;5087.30769412;4008.33333285;-0.00000896;-0.00000896;4337.05128226;6337.94872240;4208.07692301;4170.51282038;4336.66666688;4235.89743590;4235.51282052;4205.12820506
4204.99999993;4202.17948711;4332.56410278;4235.64102564;5028.97436065;4008.71794824;-0.00000896;-0.00000896;4335.89743611;6336.79487625;4208.07692301;4174.23076910;4470.25641075;4235.25641026;4235.38461539;4205.12820506
4204.10256404;4203.33333327;4504.48718005;4234.74358975;5060.89743764;4008.97435849;-0.00000896;-0.00000896;4335.76923098;6338.46154291;4208.33333327;4171.53846140;4339.10256431;4235.89743590;4235.51282052;4205.12820506
4204.74358968;4202.05128199;4371.79487208;4235.00000000;5028.46154013;4008.58974311;-0.00000896;-0.00000896;4335.76923098;6335.89744035;4208.71794865;4172.17948704;4530.38461601;4236.79487180;4235.89743590;4205.12820506
4203.97435891;4203.33333327;4339.10256431;4235.00000000;5155.12820708;4007.17948670;-0.00000896;-0.00000896;4336.41025662;6335.00000445;4208.71794865;4170.64102551;4434.23076965;4236.41025641;4235.64102564;4205.12820506
4203.33333327;4202.94871788;4305.51282066;4235.64102564;5057.05128379;4008.58974311;-0.00000896;-0.00000896;4335.89743611;6309.10256848;4208.58974352;4170.25641012;4502.69230825;4236.53846154;4235.89743590;4205.12820506
4204.10256404;4203.07692301;4304.48717963;4234.74358975;5023.46154013;4008.97435849;-0.00000896;-0.00000896;4336.66666688;6305.51282489;4208.71794865;4175.25641012;4405.64102599;4234.74358975;4235.00000000;4205.12820506
4204.35897429;4203.71794865;4437.82051324;4235.38461539;5126.53846342;4006.53846106;-0.00000896;-0.00000896;4336.66666688;6306.02564541;4208.46153840;4169.87179474;4569.23076993;4236.79487180;4236.02564103;4205.12820506
4204.48717942;4202.94871788;4431.28205170;4235.64102564;5091.28205309;4006.53846106;-0.00000896;-0.00000896;4336.92307714;6305.64103002;4208.33333327;4172.43589730;4401.79487215;4234.23076923;4235.12820513;4205.12820506
4204.99999993;4202.94871788;4207.69230763;4234.74358975;5090.00000181;4006.53846106;-0.00000896;-0.00000896;4336.79487201;6307.94872233;4209.10256404;4172.82051269;4464.87179536;4235.89743590;4235.25641026;4205.12820506
4204.61538455;4203.20512814;4305.12820527;4236.41025641;5028.58974526;3979.23076868;-0.00000896;-0.00000896;4338.20512842;6306.41026079;4233.84615385;4170.64102551;4431.02564145;4236.53846154;4235.38461539;4205.12820506
4203.97435891;4202.69230763;4373.20512849;4235.00000000;5159.48718144;4006.66666618;-0.00000896;-0.00000896;4338.71794893;6308.46154284;4207.43589737;4172.30769217;4466.28205177;4237.69230770;4235.64102564;4205.12820506
4205.12820506;4204.10256404;4369.10256438;4235.64102564;5088.20513002;4005.64102516;-0.00000896;-0.00000896;4337.56410278;6304.74359413;4205.38461532;4173.46153833;4373.20512849;4234.87179488;4235.64102564;4205.12820506
4204.61538455;4202.30769224;4372.69230797;4235.12820513;4963.58974512;4004.87179439;-0.00000896;-0.00000896;4336.28205149;6305.38461977;4207.05128199;4171.15384602;4366.53846182;4235.76923077;4235.76923077;4205.12820506
4204.61538455;4202.69230763;4240.00000000;4236.02564103;5158.46154041;4005.76923029;-0.00000896;-0.00000896;4337.82051303;6305.12820951;4208.84615378;4170.64102551;4365.76923105;4234.87179488;4235.38461539;4205.12820506
4204.99999993;4203.58974352;4338.97435919;4235.12820513;4958.33333487;4006.41025593;-0.00000896;-0.00000896;4338.84615406;6307.56410695;4208.33333327;4172.56410243;4301.15384630;4234.35897436;4235.64102564;4205.12820506
4204.61538455;4203.71794865;4301.92307707;4235.76923077;5095.00000181;4005.89743541;-0.00000896;-0.00000896;4337.56410278;6334.35897881;4206.66666660;4170.89743576;4340.00000021;4234.87179488;4234.74358975;4205.12820506
4204.87179481;4203.33333327;4336.66666688;4235.38461539;5125.64102752;4006.15384567;-0.00000896;-0.00000896;4338.07692329;6336.79487625;4233.84615385;4171.15384602;4336.66666688;4237.05128206;4235.64102564;4205.12820506
4204.23076917;4203.97435891;4268.33333341;4235.51282052;4996.66666827;4009.23076875;-0.00000896;-0.00000896;4335.76923098;6335.25641471;4208.33333327;4171.53846140;4274.35897443;4235.38461539;4235.25641026;4205.12820506
4204.74358968;4203.20512814;4333.58974380;4235.76923077;5128.07692496;4007.56410208;-0.00000896;-0.00000896;4336.66666688;6336.15385060;4208.71794865;4171.66666653;4305.38461553;4236.02564103;4235.51282052;4205.12820506
4205.25641019;4203.07692301;4340.12820534;4234.35897436;4990.76923237;4008.71794824;-0.00000896;-0.00000896;4336.66666688;6335.38461984;4207.05128199;4171.92307679;4336.28205149;4236.15384616;4235.25641026;4205.12820506
4205.12820506;4202.05128199;4466.66666716;4235.51282052;4992.17948878;4007.05128157;-0.00000896;-0.00000896;4336.41025662;6335.25641471;4209.10256404;4168.58974345;4272.82051289;4235.25641026;4235.76923077;4205.12820506
4204.61538455;4202.69230763;4273.84615392;4235.00000000;5028.33333500;4008.33333285;-0.00000896;-0.00000896;4336.53846175;6337.17949163;4207.30769224;4172.82051269;4401.28205163;4235.25641026;4234.74358975;4205.12820506
4204.87179481;4203.20512814;4368.07692336;4234.87179488;5089.35897617;4007.30769183;-0.00000896;-0.00000896;4336.53846175;6309.23077361;4208.46153840;4173.20512807;4273.33333341;4236.53846154;4235.51282052;4205.12820506
4204.23076917;4203.33333327;4202.69230763;4235.38461539;5028.07692475;4007.30769183;229.99999153;-0.00000896;4335.25641047;6338.07692753;4208.58974352;4142.82051262;4431.66666709;4236.41025641;4235.64102564;4205.12820506
4204.74358968;4203.07692301;4469.48717998;4235.76923077;5055.76923251;4007.17948670;229.99999153;-0.00000896;4335.76923098;6309.23077361;4209.10256404;4172.30769217;4367.82051310;4235.89743590;4236.92307693;4205.12820506
4204.23076917;4202.05128199;4207.69230763;4234.48717949;4962.94871948;4009.87179439;229.99999153;-0.00000896;4336.41025662;6334.48718394;4233.84615385;4172.30769217;4372.82051310;4236.53846154;4235.25641026;4205.12820506
4203.58974352;4202.69230763;4435.12820555;4236.28205129;5023.84615552;4006.79487131;229.99999153;-0.00000896;4336.79487201;6305.51282489;4209.10256404;4172.94871781;4405.76923112;4234.23076923;4234.48717949;4205.12820506
4204.35897429;4202.82051275;4209.10256404;4234.61538462;5025.89743757;4008.46153798;-0.00000896;-0.00000896;4336.79487201;6335.64103009;4208.97435891;4174.99999986;4302.05128219;4236.66666667;4235.38461539;4205.12820506
4204.35897429;4203.07692301;4334.87179508;4235.38461539;5058.46154020;4006.15384567;-0.00000896;-0.00000896;4336.66666688;6305.51282489;4234.48717949;4173.07692294;4338.84615406;4234.61538462;4235.38461539;4205.12820506
4203.97435891;4202.94871788;4465.51282100;4234.87179488;5060.00000174;4004.61538413;229.99999153;-0.00000896;4336.02564124;6307.56410695;4206.15384609;4172.69230756;4372.69230797;4238.46153847;4235.51282052;4205.12820506
4204.99999993;4203.33333327;4301.79487194;4235.00000000;5023.20512988;4005.76923029;-0.00000896;-0.00000896;4338.07692329;6338.07692753;4234.23076923;4171.41025628;4306.28205142;4236.28205129;4234.87179488;4205.12820506
4204.74358968;4203.07692301;4337.30769252;4235.38461539;5121.28205316;4007.17948670;229.99999153;-0.00000896;4338.46153867;6309.48718387;4208.33333327;4169.99999986;4370.64102592;4236.41025641;4207.82051275;4205.12820506
4204.10256404;4202.56410250;4267.94871802;4234.74358975;5060.00000174;4006.15384567;-0.00000896;-0.00000896;4336.92307714;6309.48718387;4209.10256404;4172.17948704;4240.12820513;4235.38461539;4235.38461539;4205.12820506
4204.87179481;4202.05128199;4272.17948725;4235.76923077;4994.48718109;4008.46153798;229.99999153;-0.00000896;4338.07692329;6335.89744035;4208.71794865;4175.12820499;4437.05128247;4236.15384616;4235.89743590;4205.12820506
4204.61538455;4203.58974352;4437.56410298;4235.38461539;5121.92307880;4005.12820465;-0.00000896;-0.00000896;4337.69230790;6308.58974797;4208.97435891;4175.38461525;4305.51282066;4236.79487180;4235.12820513;4205.12820506
4204.61538455;4203.07692301;4306.28205142;4234.74358975;5058.97436072;4005.51282003;229.99999153;-0.00000896;4337.05128226;6307.82051720;4208.97435891;4168.71794858;4432.43589786;4235.25641026;4235.51282052;4205.12820506
4204.87179481;4202.30769224;4336.53846175;4235.00000000;5120.89743778;4007.05128157;-0.00000896;-0.00000896;4337.82051303;6334.61538907;4208.33333327;4169.10256397;4236.02564103;4236.02564103;4235.38461539;4205.12820506
4204.35897429;4203.07692301;4270.25641033;4235.89743590;5060.76923251;4007.94871747;229.99999153;-0.00000896;4337.56410278;6309.48718387;4208.46153840;4171.15384602;4334.61538483;4235.89743590;4236.53846154;4205.12820506
4205.38461532;4202.30769224;4405.76923112;4234.87179488;4991.79487340;4007.43589695;-0.00000896;-0.00000896;4337.43589765;6309.48718387;4207.43589737;4169.74358961;4299.61538476;4235.89743590;4235.38461539;4205.12820506
4205.76923070;4202.43589737;4267.30769238;4234.74358975;5029.61538629;4007.56410208;229.99999153;-0.00000896;4336.79487201;6308.71795310;4234.35897436;4174.10256397;4399.48717984;4235.00000000;4235.64102564;4205.12820506
4205.76923070;4202.94871788;4402.56410292;4235.38461539;5153.33333528;4008.71794824;-0.00000896;-0.00000896;4338.84615406;6309.48718387;4234.10256411;4172.17948704;4202.17948711;4236.02564103;4235.12820513;4205.12820506
4204.35897429;4202.69230763;4269.74358982;4235.12820513;5056.15384789;4008.33333285;229.99999153;-0.00000896;4337.82051303;6308.20513259;4208.33333327;4171.15384602;4334.61538483;4235.51282052;4238.07692308;4205.12820506
4204.61538455;4202.56410250;4306.28205142;4235.38461539;5154.48718144;4005.89743541;-0.00000896;-0.00000896;4336.41025662;6337.17949163;4208.97435891;4169.99999986;4272.05128212;4235.25641026;4235.00000000;4205.12820506
4204.74358968;4203.07692301;4269.23076930;4234.61538462;5092.56410437;4005.89743541;229.99999153;-0.00000896;4337.94871816;6335.89744035;4208.97435891;4171.02564089;4340.25641047;4237.17948718;4235.25641026;4205.12820506
4204.48717942;4202.56410250;4463.58974408;4236.41025641;5124.23077111;4007.05128157;-0.00000896;-0.00000896;4337.05128226;6335.25641471;4208.84615378;4170.64102551;4304.48717963;4236.28205129;4237.69230770;4205.12820506
4204.61538455;4202.17948711;4273.46153853;4235.38461539;5058.71795046;4004.74358926;229.99999153;-0.00000896;4337.30769252;6335.51282496;4208.84615378;4172.69230756;4304.23076937;4237.56410257;4235.64102564;4205.12820506
4204.48717942;4202.94871788;4274.23076930;4234.87179488;4958.20512974;4004.48717900;-0.00000896;-0.00000896;4337.05128226;6337.30769676;4208.84615378;4174.74358961;4267.43589751;4234.48717949;4238.58974359;4205.12820506
4204.48717942;4202.82051275;4270.64102571;4235.00000000;5092.56410437;4005.89743541;229.99999153;-0.00000896;4337.17948739;6337.94872240;4208.97435891;4173.07692294;4334.35897457;4236.15384616;4235.38461539;4205.12820506
4205.25641019;4202.56410250;4338.20512842;4235.12820513;5061.15384789;4004.35897388;-0.00000896;-0.00000896;4337.43589765;6335.38461984;4208.97435891;4172.82051269;4334.61538483;4236.41025641;4235.51282052;4205.12820506
4203.97435891;4202.43589737;4398.58974394;4235.38461539;4991.92307853;4005.64102516;229.99999153;-0.00000896;4337.56410278;6308.97436336;4208.97435891;4172.69230756;4402.05128240;4237.69230770;4235.25641026;4205.12820506
4204.23076917;4202.56410250;4366.66666695;4235.51282052;5157.17948913;4005.12820465;-0.00000896;-0.00000896;4337.56410278;6336.02564548;4208.84615378;4169.10256397;4241.66666667;4237.43589744;4235.38461539;4205.12820506
4205.12820506;4202.94871788;4334.35897457;4234.87179488;5026.28205295;4008.58974311;229.99999153;-0.00000896;4337.05128226;6308.84615823;4208.84615378;4170.64102551;4303.84615399;4236.66666667;4235.38461539;4205.12820506
4204.74358968;4203.58974352;4339.23076944;4234.87179488;5022.56410424;4007.43589695;-0.00000896;-0.00000896;4336.66666688;6306.92308130;4208.58974352;4170.51282038;4367.56410285;4236.53846154;4235.38461539;4205.12820506
4204.35897429;4203.07692301;4273.84615392;4235.89743590;5128.07692496;4008.33333285;229.99999153;-0.00000896;4335.89743611;6307.82051720;4209.10256404;4170.89743576;4468.58974408;4236.92307693;4234.87179488;4205.12820506
4204.74358968;4202.94871788;4366.53846182;4235.12820513;4996.28205288;4007.05128157;-0.00000896;-0.00000896;4336.92307714;6308.07692746;4207.69230763;4173.07692294;4273.84615392;4237.69230770;4235.38461539;4205.12820506
4204.99999993;4203.33333327;4304.61538476;4234.87179488;5060.51282225;4006.02564054;229.99999153;-0.00000896;4336.92307714;6335.25641471;4208.97435891;4170.76923063;4273.97435905;4236.41025641;4209.10256404;4205.12820506
4204.35897429;4203.71794865;4368.84615413;4235.25641026;5022.05128372;4006.66666618;-0.00000896;-0.00000896;4336.41025662;6308.46154284;4208.58974352;4171.15384602;4302.94871809;4236.92307693;4235.00000000;4205.12820506
4204.10256404;4203.71794865;4268.84615392;4235.00000000;5089.35897617;4006.53846106;-0.00000896;-0.00000896;4337.17948739;6307.17949156;4233.84615385;4171.92307679;4405.12820548;4235.89743590;4235.12820513;4205.12820506
4203.84615378;4202.56410250;4405.51282086;4234.87179488;4994.87179647;4006.15384567;8309.23077785;-0.00000896;4336.92307714;6308.46154284;4233.84615385;4169.35897422;4370.64102592;4237.94871795;4235.76923077;4205.12820506
4204.35897429;4203.33333327;4336.28205149;4236.41025641;5090.38461720;4005.89743541;229.99999153;-0.00000896;4336.28205149;6307.69231207;4208.97435891;4171.66666653;4337.43589765;4236.53846154;4235.51282052;4205.12820506
4203.97435891;4203.20512814;4307.43589758;4234.23076923;5055.38461713;4008.46153798;229.99999153;-0.00000896;4336.15384637;6306.79487618;4209.10256404;4172.43589730;4365.64102592;4237.69230770;4235.25641026;4205.12820506
4205.12820506;4202.82051275;4266.92307700;4235.12820513;5155.00000195;4007.05128157;229.99999153;-0.00000896;4336.41025662;6308.97436336;4209.10256404;4170.38461525;4369.23076951;4235.51282052;4235.12820513;4205.12820506
4205.12820506;4203.20512814;4366.28205156;4234.48717949;5025.00000167;4009.10256362;229.99999153;-0.00000896;4337.69230790;6334.61538907;4208.71794865;4168.20512807;4367.17948746;4235.12820513;4235.38461539;4205.12820506
4204.61538455;4202.69230763;4305.64102578;4235.12820513;5089.74359155;4007.30769183;-0.00000896;-0.00000896;4338.07692329;6334.48718394;4233.84615385;4171.41025628;4403.33333368;4237.05128206;4237.05128206;4205.12820506
4204.87179481;4203.07692301;4372.82051310;4235.51282052;5029.48718116;3979.10256355;-0.00000896;-0.00000896;4336.79487201;6305.76923515;4208.07692301;4172.30769217;4271.66666674;4236.53846154;4235.51282052;4205.12820506
4204.35897429;4202.69230763;4274.23076930;4234.23076923;4991.79487340;4006.28205080;-0.00000896;-0.00000896;4336.15384637;6334.48718394;4209.10256404;4171.15384602;4335.25641047;4234.87179488;4235.89743590;4205.12820506
4204.99999993;4203.71794865;4401.02564138;4235.00000000;5023.07692475;4006.79487131;-0.00000896;-0.00000896;4336.28205149;6308.33333771;4206.53846147;4170.89743576;4269.10256418;4235.76923077;4234.61538462;4205.12820506
4204.99999993;4203.71794865;4300.76923091;4234.48717949;5025.12820680;4007.82051234;-0.00000896;-0.00000896;4336.66666688;6308.97436336;4209.10256404;4170.12820499;4434.61538504;4236.79487180;4235.25641026;4205.12820506
4204.23076917;4203.33333327;4339.48717970;4235.51282052;5092.94871976;4007.17948670;-0.00000896;-0.00000896;4336.66666688;6307.94872233;4208.20512814;4171.41025628;4303.97435912;4236.02564103;4235.25641026;4205.12820506
4203.97435891;4202.69230763;4274.23076930;4235.12820513;5022.17948885;4006.28205080;-0.00000896;-0.00000896;4337.30769252;6306.66667105;4208.97435891;4170.89743576;4370.38461567;4236.28205129;4235.38461539;4205.12820506
4204.48717942;4201.53846147;4238.07692308;4235.64102564;5185.64102766;4005.12820465;-0.00000896;-0.00000896;4336.53846175;6307.94872233;4209.10256404;4170.64102551;4401.66666702;4236.41025641;4235.51282052;4205.12820506
4204.48717942;4202.17948711;4368.97435926;4235.51282052;5025.76923244;4006.02564054;-0.00000896;-0.00000896;4338.58974380;6334.87179932;4208.58974352;4172.30769217;4335.89743611;4237.30769231;4235.25641026;4205.12820506
4204.48717942;4203.07692301;4400.38461574;4235.89743590;4992.30769391;4006.79487131;-0.00000896;-0.00000896;4336.41025662;6309.35897874;4208.84615378;4169.87179474;4403.97435933;4236.02564103;4235.00000000;4205.12820506
4204.35897429;4203.33333327;4366.79487208;4234.61538462;5219.74359183;4006.02564054;-0.00000896;-0.00000896;4339.61538483;6338.20513266;4208.71794865;4173.07692294;4334.23076944;4233.84615385;4235.51282052;4205.12820506
4204.23076917;4202.30769224;4207.82051275;4235.00000000;4959.10256564;4006.41025593;-0.00000896;-0.00000896;4337.17948739;6336.66667112;4208.33333327;4172.56410243;4268.58974366;4236.28205129;4235.51282052;4205.12820506
4204.23076917;4203.20512814;4239.87179488;4235.12820513;5088.46154027;4006.41025593;-0.00000896;-0.00000896;4336.15384637;6307.30769669;4208.84615378;4172.30769217;4367.43589772;4234.48717949;4235.38461539;4205.12820506
4204.99999993;4202.82051275;4402.94871830;4235.25641026;5087.69230950;4008.20512772;-0.00000896;-0.00000896;4337.56410278;6307.82051720;4233.84615385;4171.15384602;4432.94871837;4237.30769231;4235.38461539;4205.12820506
4204.74358968;4203.46153840;4304.35897450;4235.12820513;5126.15384803;4008.33333285;-0.00000896;-0.00000896;4336.92307714;6306.92308130;4208.97435891;4173.97435884;4338.84615406;4236.79487180;4235.76923077;4205.12820506
4204.61538455;4203.20512814;4400.00000035;4234.74358975;5021.53846321;4009.23076875;-0.00000896;-0.00000896;4336.53846175;6307.94872233;4208.58974352;4170.51282038;4303.20512835;4236.41025641;4235.12820513;4205.12820506
4205.12820506;4203.46153840;4208.07692301;4235.89743590;5123.33333521;4006.79487131;-0.00000896;-0.00000896;4337.05128226;6309.35897874;4208.97435891;4170.51282038;4334.10256431;4235.89743590;4234.48717949;4205.12820506
4203.84615378;4203.33333327;4370.51282079;4234.35897436;4989.48718109;4007.56410208;-0.00000896;-0.00000896;4337.30769252;6309.48718387;4208.46153840;4171.41025628;4273.84615392;4236.15384616;4235.89743590;4205.12820506
4204.74358968;4202.43589737;4302.94871809;4235.89743590;5059.87179661;4006.92307644;-0.00000896;-0.00000896;4335.76923098;6305.89744028;4208.84615378;4169.87179474;4434.61538504;4237.30769231;4236.28205129;4205.12820506
4205.51282045;4202.69230763;4339.35897457;4234.48717949;5057.69230943;4006.92307644;-0.00000896;-0.00000896;4336.92307714;6335.38461984;4208.20512814;4172.30769217;4302.69230784;4236.53846154;4235.51282052;4205.12820506
4204.35897429;4202.05128199;4337.94871816;4235.64102564;5061.41025815;4006.15384567;-0.00000896;-0.00000896;4336.92307714;6307.69231207;4208.46153840;4169.48717935;4335.00000021;4236.15384616;4235.51282052;4205.12820506
4204.87179481;4202.94871788;4305.64102578;4234.35897436;4959.74359128;4005.25640977;-0.00000896;-0.00000896;4337.05128226;6308.58974797;4207.43589737;4173.07692294;4272.94871802;4235.76923077;4235.38461539;4205.12820506
4205.76923070;4202.05128199;4336.28205149;4235.51282052;5092.05128386;4005.51282003;-0.00000896;-0.00000896;4337.56410278;6309.23077361;4208.84615378;4172.05128192;4403.46153881;4234.61538462;4235.00000000;4205.12820506
4204.87179481;4202.17948711;4371.28205156;4235.76923077;5089.23077104;4006.15384567;-0.00000896;-0.00000896;4336.66666688;6308.84615823;4208.84615378;4173.46153833;4398.84615420;4238.46153847;4235.38461539;4205.12820506
4204.48717942;4203.07692301;4401.02564138;4235.12820513;5056.66666841;4008.07692259;229.99999153;-0.00000896;4337.05128226;6337.69231214;4208.46153840;4170.64102551;4272.69230777;4234.48717949;4235.76923077;4205.12820506
4204.23076917;4203.33333327;4336.53846175;4235.76923077;5056.53846328;4007.94871747;39.74358085;-0.00000896;4336.79487201;6307.43590182;4208.33333327;4173.33333320;4371.92307720;4234.87179488;4208.07692301;4205.12820506
4204.23076917;4203.46153840;4238.97435898;4234.61538462;4992.43589904;4007.30769183;8342.82052151;-0.00000896;4336.15384637;6334.87179932;4208.97435891;4171.41025628;4303.97435912;4236.41025641;4235.38461539;4205.12820506
4204.87179481;4202.82051275;4304.87179501;4235.38461539;5186.28205330;4005.51282003;-0.00000896;-0.00000896;4336.53846175;6334.61538907;4208.58974352;4169.74358961;4367.69230797;4236.53846154;4235.76923077;4205.12820506
4204.35897429;4203.20512814;4372.30769259;4235.12820513;5029.35897603;4006.15384567;229.99999153;-0.00000896;4335.76923098;6334.61538907;4208.33333327;4170.12820499;4368.33333362;4238.20512821;4234.87179488;4205.12820506
4204.87179481;4203.33333327;4269.10256418;4235.38461539;4994.74359135;4004.48717900;229.99999153;-0.00000896;4335.89743611;6306.15385054;4208.46153840;4169.87179474;4336.53846175;4237.05128206;4235.38461539;4205.12820506
4204.74358968;4202.30769224;4336.92307714;4235.12820513;5128.07692496;4006.02564054;229.99999153;-0.00000896;4336.41025662;6307.94872233;4208.84615378;4170.76923063;4372.17948746;4234.87179488;4235.51282052;4205.12820506
4203.58974352;4203.84615378;4367.30769259;4234.87179488;4995.51282211;4006.28205080;229.99999153;-0.00000896;4337.05128226;6307.05128643;4206.41025634;4168.20512807;4268.71794879;4237.43589744;4235.38461539;4205.12820506
4204.74358968;4203.20512814;4337.30769252;4234.61538462;5090.76923258;4007.05128157;229.99999153;-0.00000896;4335.89743611;6307.30769669;4234.61538462;4174.48717935;4370.25641054;4237.69230770;4234.74358975;4205.12820506
4205.12820506;4204.23076917;4338.97435919;4235.64102564;5061.15384789;4005.12820465;229.99999153;-0.00000896;4336.53846175;6308.84615823;4208.46153840;4171.92307679;4435.89743632;4236.28205129;4236.02564103;4205.12820506
4204.74358968;4203.07692301;4306.28205142;4235.38461539;4959.74359128;4005.64102516;229.99999153;-0.00000896;4337.17948739;6309.10256848;4208.20512814;4171.79487166;4208.46153840;4235.64102564;4234.87179488;4205.12820506
4203.71794865;4203.46153840;4305.12820527;4235.00000000;5122.56410444;4007.17948670;229.99999153;-0.00000896;4338.07692329;6337.30769676;4206.28205122;4170.38461525;4373.07692336;4235.00000000;4235.64102564;4205.12820506
4204.35897429;4203.46153840;4171.66666653;4235.76923077;4996.28205288;4004.48717900;229.99999153;-0.00000896;4338.20512842;6334.61538907;4206.66666660;4169.61538448;4339.10256431;4235.89743590;4235.76923077;4205.12820506
4204.99999993;4202.69230763;4464.74359023;4234.87179488;5029.48718116;4006.92307644;229.99999153;-0.00000896;4337.56410278;6336.28205573;4205.76923070;4173.33333320;4305.12820527;4237.94871795;4235.25641026;4205.12820506
4204.35897429;4202.94871788;4335.25641047;4235.89743590;5058.84615559;4006.15384567;229.99999153;-0.00000896;4336.79487201;6335.51282496;4204.99999993;4171.79487166;4406.02564138;4234.10256411;4236.66666667;4205.12820506
4204.99999993;4202.82051275;4339.23076944;4235.00000000;5125.76923265;4006.02564054;229.99999153;-0.00000896;4337.82051303;6309.61538900;4208.58974352;4173.97435884;4266.92307700;4235.89743590;4235.64102564;4205.12820506
4204.10256404;4203.33333327;4334.48717970;4234.61538462;5058.71795046;4006.28205080;229.99999153;-0.00000896;4338.20512842;6334.87179932;4207.56410250;4170.51282038;4336.15384637;4236.02564103;4235.25641026;4205.12820506
4204.74358968;4203.20512814;4303.07692322;4235.25641026;5056.66666841;4005.76923029;229.99999153;-0.00000896;4338.84615406;6335.89744035;4208.97435891;4170.51282038;4267.82051289;4235.64102564;4235.25641026;4205.12820506
4204.48717942;4202.94871788;4368.07692336;4235.38461539;5125.00000188;4004.99999952;229.99999153;-0.00000896;4337.43589765;6308.33333771;4233.84615385;4173.20512807;4496.41025697;4236.66666667;4235.38461539;4205.12820506
4204.74358968;4203.71794865;4400.12820548;4235.12820513;5091.53846335;4006.28205080;229.99999153;-0.00000896;4337.30769252;6335.76923522;4208.20512814;4174.61538448;4175.51282038;4237.30769231;4235.25641026;4205.12820506
4204.35897429;4202.56410250;4274.61538469;4236.15384616;5087.43589925;4005.25640977;229.99999153;-0.00000896;4337.30769252;6309.23077361;4208.58974352;4168.20512807;4339.23076944;4236.41025641;4235.64102564;4205.12820506
4205.38461532;4202.30769224;4371.79487208;4234.87179488;5023.46154013;4005.38461490;229.99999153;-0.00000896;4336.66666688;6335.89744035;4207.17948711;4172.82051269;4234.87179488;4236.53846154;4235.25641026;4205.12820506
4204.99999993;4202.43589737;4340.25641047;4235.12820513;4990.76923237;4005.89743541;229.99999153;-0.00000896;4337.82051303;6334.35897881;4207.94871788;4171.66666653;4463.84615434;4237.17948718;4234.87179488;4205.12820506
4203.84615378;4202.94871788;4398.46153881;4235.00000000;5091.02564284;4006.53846106;229.99999153;-0.00000896;4337.30769252;6335.12820958;4207.82051275;4168.58974345;4305.51282066;4236.92307693;4235.25641026;4205.12820506
4204.35897429;4202.69230763;4300.38461553;4234.35897436;5186.41025843;4006.02564054;229.99999153;-0.00000896;4337.43589765;6336.79487625;4233.84615385;4171.53846140;4435.89743632;4235.25641026;4234.35897436;4205.12820506
4204.48717942;4203.46153840;4272.43589751;4234.74358975;5089.23077104;4007.43589695;229.99999153;-0.00000896;4336.53846175;6334.61538907;4208.20512814;4172.17948704;4239.23076923;4234.87179488;4235.38461539;4205.12820506
4204.74358968;4202.82051275;4271.02564110;4235.38461539;5022.17948885;4005.89743541;229.99999153;-0.00000896;4336.41025662;6334.35897881;4208.84615378;4173.33333320;4464.74359023;4235.64102564;4235.12820513;4205.12820506
4204.48717942;4201.66666660;4432.94871837;4235.64102564;5027.17948885;4005.76923029;229.99999153;-0.00000896;4336.15384637;6308.97436336;4208.71794865;4173.71794858;4337.30769252;4235.89743590;4238.46153847;4205.12820506
4204.35897429;4202.05128199;4437.17948760;4235.38461539;5190.64102766;4006.92307644;229.99999153;-0.00000896;4336.02564124;6308.20513259;4208.97435891;4168.58974345;4273.84615392;4237.56410257;4234.61538462;4205.12820506
4204.87179481;4202.82051275;4274.10256418;4235.00000000;4958.33333487;4008.46153798;229.99999153;-0.00000896;4337.30769252;6337.05128650;4208.33333327;4172.30769217;4306.41025655;4236.66666667;4236.92307693;4205.12820506
4205.12820506;4202.56410250;4338.46153867;4234.35897436;5059.35897610;4007.05128157;229.99999153;-0.00000896;4336.41025662;6309.48718387;4208.46153840;4173.84615371;4334.74358996;4237.69230770;4235.25641026;4205.12820506
4204.61538455;4203.58974352;4339.23076944;4235.76923077;4962.94871948;4006.79487131;229.99999153;-0.00000896;4336.15384637;6335.89744035;4208.58974352;4170.76923063;4271.02564110;4236.53846154;4235.25641026;4205.12820506
4204.74358968;4202.94871788;4332.56410278;4209.10256404;5121.02564291;4006.02564054;229.99999153;-0.00000896;4336.66666688;6335.76923522;4208.07692301;4172.94871781;4532.69230832;4236.28205129;4235.12820513;4205.12820506
4204.23076917;4202.43589737;4367.17948746;4235.64102564;4960.00000153;4005.89743541;229.99999153;-0.00000896;4337.69230790;6308.58974797;4208.71794865;4172.05128192;4271.41025648;4235.12820513;4234.87179488;4205.12820506
4205.12820506;4202.43589737;4339.23076944;4235.38461539;5095.00000181;4008.97435849;229.99999153;-0.00000896;4336.66666688;6306.02564541;4208.97435891;4170.25641012;4305.25641040;4235.12820513;4235.12820513;4205.12820506
4204.99999993;4203.20512814;4368.84615413;4234.87179488;4991.15384776;4007.30769183;229.99999153;-0.00000896;4336.92307714;6305.51282489;4209.10256404;4172.30769217;4303.20512835;4238.33333334;4235.12820513;4205.12820506
4204.87179481;4202.43589737;4367.94871823;4236.28205129;5121.02564291;4005.89743541;229.99999153;-0.00000896;4337.43589765;6308.84615823;4207.30769224;4171.15384602;4367.17948746;4235.76923077;4237.56410257;4205.12820506
4205.25641019;4203.07692301;4369.74359003;4234.10256411;5054.48718123;4008.58974311;-0.00000896;-0.00000896;4337.17948739;6336.79487625;4234.23076923;4173.84615371;4432.05128247;4235.51282052;4236.15384616;4205.12820506
4204.23076917;4203.84615378;4336.02564124;4235.38461539;5087.17948899;4006.66666618;39.87178598;-0.00000896;4336.28205149;6308.84615823;4208.20512814;4175.51282038;4333.20512842;4235.12820513;4208.84615378;4205.12820506
4204.23076917;4203.97435891;4239.74358975;4234.87179488;5058.07692482;4006.53846106;229.99999153;-0.00000896;4335.89743611;6336.02564548;4209.10256404;4172.82051269;4302.43589758;4236.15384616;4235.12820513;4205.12820506
4203.84615378;4203.97435891;4370.38461567;4235.76923077;5055.89743764;4006.41025593;39.87178598;-0.00000896;4337.17948739;6336.79487625;4208.97435891;4171.41025628;4301.79487194;4238.20512821;4234.74358975;4205.12820506
4204.99999993;4203.58974352;4368.97435926;4235.00000000;5025.00000167;4009.23076875;-0.00000896;-0.00000896;4338.07692329;6309.35897874;4208.33333327;4171.66666653;4398.84615420;4236.66666667;4235.25641026;4205.12820506
