Gyro-X;Gyro-Z;AF3;Gyro-Y;T7;Acc-X;Pz;QualityData_1;QualityData_2;Acc-Z;Acc-Y;T8;Mag-X;AF4;Mag-Z;Mag-Y;Mag-X;Gyro-X 
3617.30769099;3971.28205073;5582.56410542;3944.99999938;5188.97436099;2107.43589292;136.53845286;-0.00000896;4766.28205240;4799.10256529;5390.00000244;4270.51282059;4862.82051414;4168.58974345;4237.56410257;3614.10256279
3610.38461407;3943.97435835;5515.89743861;3975.38461483;5026.15384783;2134.10255966;229.99999153;-0.00000896;4794.61538580;4766.15384727;5290.64102787;4268.97435905;4727.30769335;4168.97435884;4237.05128206;3614.10256279
3582.30769092;3942.17948656;5453.58974616;3977.56410201;5352.05128442;2137.05127761;136.53845286;-0.00000896;4795.64102683;4763.07692419;5318.07692537;4271.02564110;4763.71794983;4142.43589723;4235.64102564;3581.28204990
3579.61538323;3940.51281989;5384.10256654;3978.84615329;5157.05128400;2107.94871344;229.99999153;-0.00000896;4826.41025766;4730.76923182;5219.23077132;4272.82051289;4632.17948802;4139.74358954;4237.05128206;3581.28204990
3550.76922931;3912.17948649;5290.25641248;4009.74358926;5323.20513050;2133.84614940;136.53845286;-0.00000896;4829.87179613;4665.51282142;5126.53846342;4273.84615392;4595.38461615;4140.89743569;4233.84615385;3548.46153701
3548.46153701;3913.33333264;5125.00000188;4037.30769189;5222.82051491;2137.69230325;229.99999153;-0.00000896;4830.25641151;4660.76923168;4956.53846307;4271.79487187;4338.58974380;4139.23076903;4208.97435891;3548.46153701
3545.25640880;3911.79487110;5127.17948906;4038.33333292;5122.69230957;2136.15384171;136.53845286;-0.00000896;4829.10256536;4631.79487263;4896.15384755;4270.00000007;4305.76923091;4138.33333313;4207.94871788;3548.46153701
3545.25640880;3910.12820444;5057.94871969;4038.71794830;5190.38461740;2138.20512376;229.99999153;-0.00000896;4858.58974491;4568.20512890;4863.07692440;4272.30769238;4300.25641040;4138.07692287;4206.92307686;3548.46153701
3546.15384470;3909.74358905;4962.56410410;4037.43589702;5156.79487374;2139.87179043;136.53845286;-0.00000896;4830.12820638;4536.02564165;4729.61538566;4271.15384623;4171.28205115;4138.84615364;4206.28205122;3548.46153701
3548.97435752;3910.89743521;4831.79487305;4011.15384567;5255.64102780;2136.28204684;229.99999153;-0.00000896;4831.41025766;4499.74359030;4628.33333417;4271.28205136;4042.94871754;4135.51282031;4205.25641019;3548.46153701
3551.66666521;3908.71794803;4831.41025766;4010.76923029;5124.10256598;2139.23076479;136.53845286;-0.00000896;4831.28205254;4465.38461587;4568.71794942;4273.71794879;3977.17948663;4136.02564082;4202.94871788;3548.46153701
3581.79487041;3909.74358905;4863.07692440;4007.43589695;5128.07692496;2137.43589299;229.99999153;-0.00000896;4862.05128338;4436.28205170;4632.43589827;4274.23076930;4043.84615343;4108.71794844;4203.33333327;3581.28204990
3613.33333202;3908.84615316;4893.71795011;4005.51282003;5124.48718137;2135.89743145;8245.76923925;-0.00000896;4865.12820645;4368.46153874;4632.82051366;4273.46153853;4012.05128157;4108.71794844;4202.82051275;3614.10256279
3643.46153721;3909.61538392;4829.87179613;4005.51282003;5058.97436072;2108.20512369;133.07691439;-0.00000896;4896.15384755;4339.10256431;4597.43589820;4300.12820527;3972.17948663;4107.56410229;4201.02564096;3646.92307568
3646.92307568;3910.51281982;4760.38461650;4005.51282003;5094.61538643;2136.15384171;8305.51282913;-0.00000896;4926.79487326;4303.07692322;4502.30769287;4299.61538476;3910.25640957;4109.48717921;4202.05128199;3646.92307568
3676.28205010;3910.76923008;4828.71794997;4004.99999952;4931.15384762;2139.61538017;229.99999153;-0.00000896;4958.97436051;4241.28205129;4600.51282128;4273.58974366;3945.51281989;4107.94871767;4175.38461525;3679.74358857
3683.33333216;3938.71794810;4694.10256508;4038.20512779;4628.71794956;2171.02563665;-0.00000896;-0.00000896;5153.71795067;4069.74358940;4469.35897485;4272.05128212;3782.43589647;4104.48717921;4170.76923063;3679.74358857
3682.82051164;3939.99999938;4599.23077000;4042.82051241;4662.56410347;2174.23076486;-0.00000896;-0.00000896;5160.25641221;4039.74358933;4399.23076958;4270.25641033;3677.69230651;4104.10256383;4169.35897422;3679.74358857
3683.20512703;3941.41025579;4693.33333431;4070.38461504;4470.25641075;2173.97435460;-0.00000896;-0.00000896;5191.28205330;3977.69230714;4433.46153888;4268.97435905;3709.61538351;4077.82051248;4142.94871774;3679.87179369
3682.43589626;3942.69230707;4796.92307811;4077.30769196;4500.00000056;2170.12820075;-0.00000896;-0.00000896;5219.74359183;3974.87179432;4532.30769294;4269.74358982;3840.51281968;4106.41025614;4143.20512800;3679.87179369
3683.71794754;3943.07692246;4792.94871913;4107.69230742;4529.74359037;2201.92307262;-0.00000896;-0.00000896;5221.28205337;3913.20512751;4532.43589807;4274.10256418;3746.66666563;4077.17948684;4141.92307672;3679.87179369
3683.33333216;3944.99999938;4862.94871927;4139.48717928;4567.17948788;2206.92307262;-0.00000896;-0.00000896;5193.33333535;3906.53846085;4627.69230853;4271.66666674;3809.74358884;4076.15384581;4142.05128185;3679.87179369
3683.20512703;3971.53846099;4825.12820638;4143.07692287;4532.43589807;2264.61538045;-0.00000896;-0.00000896;5189.74359176;3874.87179411;4562.56410326;4273.20512828;3776.66666570;4077.43589709;4140.25641005;3679.87179369
3710.25640915;3973.71794817;4729.87179592;4173.84615371;4565.00000070;2239.87179064;-0.00000896;-0.00000896;5190.25641228;3841.28205045;4530.12820576;4271.53846161;3743.33333229;4103.46153819;4139.35897415;3712.69230658
3711.41025530;3975.89743535;4568.58974429;4202.94871788;4533.58974422;2239.61538038;-0.00000896;-0.00000896;5189.61538663;3781.15384518;4467.56410305;4274.10256418;3514.61538309;4103.33333306;4138.46153826;3712.82051171
3712.82051171;3977.17948663;4498.58974415;4208.07692301;4630.89743674;2239.61538038;-0.00000896;-0.00000896;5190.25641228;3776.92307595;4372.05128233;4270.25641033;3516.53846001;4077.17948684;4135.38461518;3712.82051171
3712.43589633;3979.35897381;4468.58974408;4236.66666667;4569.23076993;2266.41025224;-0.00000896;-0.00000896;5190.76923279;3714.99999889;4304.48717963;4272.17948725;3453.97435731;4103.71794844;4136.92307672;3712.82051171
3710.89743479;4005.25640977;4562.56410326;4241.15384616;4504.23076979;2238.20512397;-0.00000896;-0.00000896;5192.56410458;3714.10256299;4372.17948746;4271.79487187;3450.64102398;4103.71794844;4135.38461518;3712.82051171
3682.82051164;4006.66666618;4470.89743639;4270.12820520;4567.69230839;2272.69230353;-0.00000896;-0.00000896;5188.33333535;3683.07692190;4365.76923105;4270.00000007;3413.84615211;4103.46153819;4107.69230742;3679.99999882
3680.38461421;4008.58974311;4434.74359016;4272.56410264;4660.76923168;2271.02563686;-0.00000896;-0.00000896;5158.84615580;3649.87179362;4271.92307700;4269.61538469;3417.56410083;4104.48717921;4109.74358947;3679.99999882
3677.56410139;4007.05128157;4403.33333368;4302.94871809;4533.58974422;2268.46153430;-0.00000896;-0.00000896;5155.12820708;3645.25640901;4236.53846154;4270.51282059;3350.76922890;4077.69230735;4108.58974332;3679.99999882
3649.87179362;4006.66666618;4405.76923112;4332.56410278;4696.66666764;2267.94871378;-0.00000896;-0.00000896;5121.79487367;3616.02563971;4206.41025634;4271.15384623;3320.51281857;4103.20512793;4107.30769203;3647.30769106
3646.79487055;4007.17948670;4399.23076958;4337.30769252;4562.43589813;2268.20512404;-0.00000896;-0.00000896;5062.05128379;3581.53846015;4207.43589737;4272.56410264;3317.30769037;4104.10256383;4107.05128178;3647.30769106
3645.89743465;4006.92307644;4335.76923098;4339.74358996;4536.15384678;2269.99999583;-0.00000896;-0.00000896;5029.61538629;3583.84615246;4203.33333327;4268.97435905;3256.92307484;4104.10256383;4106.79487152;3647.30769106
3646.15384491;4005.51282003;4340.25641047;4368.33333362;4436.15384657;2270.76922660;-0.00000896;-0.00000896;4993.07692468;3549.99999854;4203.20512814;4271.41025648;3253.33333125;4106.02564075;4104.61538434;3647.30769106
3647.82051157;4004.48717900;4301.41025655;4370.89743618;4466.66666716;2268.71794455;-0.00000896;-0.00000896;4961.28205281;3513.33333181;4171.53846140;4272.17948725;3155.51281822;4107.82051255;4104.48717921;3647.30769106
3646.66666542;4004.48717900;4299.74358989;4399.61538497;4496.79487235;2297.56409847;-0.00000896;-0.00000896;4930.64102710;3452.82051116;4142.82051262;4272.05128212;3218.71794657;4106.79487152;4103.71794844;3647.30769106
3647.17948593;4004.35897388;4436.28205170;4401.41025676;4693.84615482;2299.48717539;-0.00000896;-0.00000896;4925.51282198;3417.30769057;4270.38461546;4273.20512828;3381.79486999;4107.43589716;4077.82051248;3647.30769106
3645.89743465;4004.99999952;4436.28205170;4404.74359009;4797.05128324;2304.35897026;-0.00000896;-0.00000896;4895.38461678;3388.33333153;4302.30769245;4271.41025648;3316.28204934;4106.53846126;4076.92307658;3647.30769106
3646.15384491;4008.58974311;4530.51282114;4432.17948760;4694.35897534;2330.51281649;229.99999153;-0.00000896;4832.43589869;3351.02563915;4366.02564131;4271.15384623;3415.64102391;4108.97435870;4075.12820478;3647.30769106
3648.33333209;4011.66666618;4530.12820576;4434.35897478;4729.61538566;2271.41025224;8246.02564951;-0.00000896;4825.64102690;3318.20512626;4307.30769245;4272.94871802;3319.74358780;4109.23076896;4075.38461504;3647.30769106
3650.25640901;4037.94871754;4501.66666723;4464.10256459;4600.25641102;2271.41025224;104.35896561;-0.00000896;4825.38461664;3288.07692107;4372.05128233;4273.07692315;3417.94871622;4109.99999973;4075.51282017;3647.43589619
3651.02563978;4039.61538420;4529.35897499;4469.48717998;4470.76923126;2299.87179078;8272.17949573;-0.00000896;4796.92307811;3251.79486971;4366.02564131;4299.48717963;3284.74358773;4135.38461518;4074.48717914;3647.43589619
3649.48717824;4042.69230728;4600.76923154;4501.15384671;4397.94871830;2302.82050872;229.99999153;-0.00000896;4763.84615496;3223.71794657;4431.41025683;4273.71794879;3319.23076729;4110.64102537;4073.97435863;3647.43589619
3648.46153721;4077.82051248;4597.30769308;4531.92307755;4301.66666681;2331.92307290;229.99999153;-0.00000896;4732.43589848;3224.35897221;4463.97435946;4271.02564110;3189.23076701;4137.05128185;4073.46153812;3647.43589619
3647.30769106;4074.87179453;4632.82051366;4536.15384678;4569.61538531;2336.53845751;229.99999153;-0.00000896;4697.43589841;3188.97435675;4469.35897485;4272.82051289;3317.82051088;4138.58974339;4071.53846119;3647.43589619
3646.66666542;4104.99999973;4628.97435981;4566.79487249;4175.12820499;2366.02563707;229.99999153;-0.00000896;4630.25641109;3217.56410041;4435.00000042;4299.48717963;3320.89743396;4138.33333313;4072.30769196;3647.43589619
3646.53846029;4110.12820485;4565.51282121;4599.23077000;4305.64102578;2365.64102168;229.99999153;-0.00000896;4597.43589820;3190.51281829;4401.28205163;4274.35897443;3285.51281850;4140.12820492;4071.92307658;3647.56410132
3644.23076798;4137.30769210;4535.89743653;4602.82051359;4241.66666667;2337.43589341;229.99999153;-0.00000896;4567.30769301;3158.46153617;4337.94871816;4271.28205136;3315.38461344;4141.53846133;4071.53846119;3647.56410132
3616.92307561;4140.64102544;4468.71794921;4631.92307776;4332.56410278;2365.89743194;229.99999153;-0.00000896;4530.64102627;3183.58974137;4369.10256438;4273.58974366;3350.25640838;4140.76923056;4070.64102530;3614.74358843
3614.23076791;4169.23076910;4500.25641082;4661.79487270;4404.23076958;2368.46153450;229.99999153;-0.00000896;4463.58974408;3187.05127983;4303.97435912;4274.10256418;3383.84615204;4141.28205108;4044.87179446;3614.74358843
3613.46153715;4173.07692294;4465.25641075;4667.82051373;4398.58974394;2366.02563707;229.99999153;-0.00000896;4372.69230797;3190.64102342;4305.25641040;4274.10256418;3415.76922904;4169.10256397;4070.25640991;3614.74358843
3611.66666535;4201.92307686;4503.33333389;4699.61538559;4629.61538545;2337.43589341;229.99999153;-0.00000896;4365.64102592;3185.38461316;4303.58974373;4270.76923084;3421.15384442;4170.76923063;4070.12820478;3614.74358843
3610.64102432;4204.48717942;4597.17948795;4732.94871899;4402.69230804;2367.56409861;229.99999153;-0.00000896;4306.15384630;3189.87179265;4403.20512856;4273.46153853;3613.84615253;4171.66666653;4044.61538420;3614.87179356
3584.61538323;4207.17948711;4660.64102655;4792.69230888;4569.35897506;2399.74358586;229.99999153;-0.00000896;4268.84615392;3189.99999778;4469.48717998;4271.41025648;3678.20512703;4171.41025628;4070.12820478;3582.05128067
3584.99999861;4238.71794872;4565.64102634;4828.71794997;4470.12820562;2463.20512446;229.99999153;-0.00000896;4136.02564082;3188.97435675;4400.76923112;4300.51282066;3747.94871691;4176.02564089;4069.74358940;3582.05128067
3611.41025509;4267.69230777;4628.46153930;4832.30769356;4628.07692391;2402.94871406;229.99999153;-0.00000896;4044.48717907;3218.97435682;4401.53846189;4272.43589751;3747.43589640;4175.89743576;4069.74358940;3614.87179356
3613.58974227;4270.64102571;4567.05128275;4860.25641158;4401.41025676;2430.64102182;229.99999153;-0.00000896;4043.33333292;3187.30769009;4339.74358996;4273.58974366;3814.23076833;4202.82051275;4069.87179453;3614.99999868
3614.35897304;4300.25641040;4535.00000063;4893.71795011;4465.00000049;2464.61538087;229.99999153;-0.00000896;4006.15384567;3218.46153631;4332.82051303;4301.41025655;3846.53846071;4205.76923070;4069.87179453;3614.99999868
3615.25640894;4307.43589758;4504.35897492;4927.82051428;4536.53846217;2562.69230415;229.99999153;-0.00000896;3809.10256320;3221.66666452;4302.05128219;4300.76923091;3973.97435842;4206.66666660;4070.38461504;3614.99999868
3644.61538337;4367.17948746;4406.02564138;4930.12820659;4502.69230825;2561.66666313;229.99999153;-0.00000896;3643.97435773;3256.41025433;4208.33333327;4300.38461553;4005.76923029;4208.71794865;4071.02564068;3647.82051157
3677.43589626;4398.20512856;4471.41025690;4923.33333480;4663.71794963;2495.64102196;229.99999153;-0.00000896;3580.89743451;3283.20512619;4268.20512828;4273.33333341;4009.74358926;4209.10256404;4069.87179453;3680.64102446
3710.76922966;4400.76923112;4434.61538504;4893.07692447;4694.23077021;2466.41025266;229.99999153;-0.00000896;3582.94871656;3287.94871594;4203.20512814;4300.51282066;4039.99999959;4236.41025641;4071.53846119;3713.46153735
3715.25640915;4430.89743632;4401.02564138;4897.05128344;4766.15384727;2563.58974005;229.99999153;-0.00000896;3547.69230624;3314.99999806;4171.79487166;4273.20512828;4007.69230721;4237.05128206;4071.92307658;3713.46153735
3746.79487076;4465.76923126;4499.87179543;4925.25641172;4924.61538608;2599.35897089;229.99999153;-0.00000896;3380.64102384;3321.15384421;4270.12820520;4273.97435905;4102.56410229;4240.76923077;4072.82051248;3746.28205024
3778.84615288;4497.17948774;4434.87179529;4923.84615531;4799.35897554;2497.56409889;229.99999153;-0.00000896;3283.71794671;3354.87179300;4204.48717942;4273.33333341;4171.41025628;4238.33333334;4073.33333299;3779.10256313
3812.30769141;4498.07692364;4368.33333362;4895.25641165;4732.82051387;2496.92307324;229.99999153;-0.00000896;3316.66666472;3385.38461358;4142.43589723;4274.48717956;4203.58974352;4267.43589751;4074.23076889;3811.92307602
3839.99999917;4499.10256466;4274.10256418;4895.12820652;4897.94871934;2564.87179133;229.99999153;-0.00000896;3319.99999806;3415.64102391;4074.99999966;4273.71794879;4174.35897422;4268.46153853;4075.38461504;3844.74358891
3842.94871712;4530.76923140;4370.00000028;4924.48718095;5153.33333528;2630.12820173;229.99999153;-0.00000896;3256.15384407;3451.15384449;4171.41025628;4271.92307700;4272.56410264;4270.25641033;4075.38461504;3844.74358891
3874.74358898;4562.94871865;4503.46153902;4957.43589897;4928.33333480;2630.12820173;229.99999153;-0.00000896;3157.43589515;3513.71794719;4303.58974373;4273.07692315;4467.94871844;4274.61538469;4076.41025607;3877.56410180
3880.51281975;4569.10256480;4272.17948725;4962.17948871;4765.51282163;2599.35897089;229.99999153;-0.00000896;3092.30768988;3516.02563950;4106.28205101;4300.00000014;4303.71794886;4273.58974366;4077.30769196;3877.56410180
3908.84615316;4595.76923154;4300.25641040;4963.58974512;4957.94871948;2697.30768905;229.99999153;-0.00000896;3086.02563860;3515.25640873;4170.12820499;4272.69230777;4401.66666702;4301.15384630;4105.12820485;3910.38461469
3912.94871726;4599.87179564;4267.05128212;4991.53846314;5061.41025815;2760.51281739;229.99999153;-0.00000896;2989.35897172;3552.05128060;4173.97435884;4270.76923084;4404.35897471;4273.84615392;4103.84615357;3910.51281982
3941.92307630;4632.30769315;4432.17948760;4995.25641186;5192.82051484;2697.05127879;229.99999153;-0.00000896;2789.87179182;3644.99999875;4334.23076944;4271.66666674;4503.97435953;4304.87179501;4105.64102537;3943.33333271
3973.46153791;4634.74359058;4401.28205163;4991.66666827;5193.33333535;2598.46153499;229.99999153;-0.00000896;2660.12820180;3679.99999882;4240.12820513;4271.66666674;4504.48718005;4304.35897450;4105.38461511;3976.15384560
3979.23076868;4628.97435981;4431.92307734;4930.51282198;5186.02564304;2664.61538128;229.99999153;-0.00000896;2629.74358634;3682.05128087;4339.74358996;4270.51282059;4628.07692391;4305.00000014;4106.66666639;3976.02564047
4008.58974311;4627.82051366;4365.76923105;4895.64102703;5321.41025871;2794.48717643;8275.51282906;-0.00000896;2596.41025294;3709.61538351;4305.89743604;4266.92307700;4598.46153923;4305.12820527;4107.94871767;4008.84615336
4040.38461497;4633.84615468;3780.89743493;4865.51282184;5585.38461824;2828.71794573;136.28204260;-0.00000896;2501.79486812;3742.69230665;3781.28205031;4267.82051289;4143.33333313;4307.05128219;4109.10256383;4041.66666625
4077.69230735;4667.05128296;3746.15384512;4861.53846286;5415.64102815;2764.23076611;229.99999153;-0.00000896;2398.97435509;3808.33333243;3681.02563985;4268.20512828;4109.35897408;4307.17948732;4108.33333306;4074.48717914
4110.38461511;4668.20512911;3612.82051150;4832.43589869;5318.84615614;2729.48717629;136.28204260;-0.00000896;2366.02563707;3874.35897360;3550.38461393;4268.71794879;3978.97435842;4335.25641047;4110.64102537;4107.17948691
4142.05128185;4667.05128296;3516.66666514;4828.07692433;5284.74359197;2794.87179182;-0.00000896;-0.00000896;2368.71794476;3841.02564020;3481.15384456;4241.53846154;4038.97435856;4334.23076944;4136.92307672;4139.99999980
4175.25641012;4665.76923168;3447.82051116;4797.94871913;5384.23077167;2893.33333049;-0.00000896;-0.00000896;2336.53845751;3846.02564020;3447.43589577;4269.23076930;3977.17948663;4334.87179508;4136.66666646;4172.82051269
4206.41025634;4668.58974450;2593.07691961;4793.46153965;5419.74359225;2924.23076646;-0.00000896;-0.00000896;2272.05127789;3875.38461462;2595.76922730;4240.89743590;3320.89743396;4336.02564124;4135.89743569;4205.64102558
4237.56410257;4695.12820610;2629.35897096;4760.38461650;5291.66666889;2893.58974074;-0.00000896;-0.00000896;2267.69230353;3880.38461462;2658.71794539;4239.10256411;3414.61538288;4336.41025662;4138.97435877;4238.46153847
4268.07692315;4694.74359072;2596.15384268;4700.64102662;5319.87179717;2957.17948447;-0.00000896;-0.00000896;2297.94871385;3907.43589674;2631.53845814;4236.53846154;3381.66666486;4338.20512842;4139.10256390;4271.15384623
4274.10256418;4695.64102662;2561.79486825;4694.23077021;5252.69230985;3024.99999743;-0.00000896;-0.00000896;2332.56409854;3908.71794803;2594.10256063;4240.76923077;3387.94871615;4365.64102592;4138.71794851;4271.15384623
4303.20512835;4726.79487284;2599.10256063;4667.30769321;5356.53846390;3088.33333091;-0.00000896;-0.00000896;2336.66666264;3908.71794803;2659.35897103;4236.15384616;3451.15384449;4339.10256431;4140.51282031;4303.97435912
4332.94871816;4759.23077035;2564.48717595;4695.76923175;5224.87179696;3055.64102314;-0.00000896;-0.00000896;2299.87179078;3944.74358912;2595.89743243;4237.82051282;3450.25640859;4339.23076944;4138.97435877;4336.79487201
4338.20512842;4766.92307804;2562.05127851;4699.10256508;5062.43589918;3089.10256167;-0.00000896;-0.00000896;2271.28204712;3974.87179432;2628.71794532;4237.94871795;3349.87179300;4366.02564131;4142.43589723;4336.79487201
4366.66666695;4797.69230888;2527.30768870;4701.15384713;5160.76923272;3156.15384386;-0.00000896;-0.00000896;2303.33332924;4004.61538413;2628.84615045;4237.30769231;3282.56410055;4366.79487208;4174.74358961;4369.61538490
4368.20512849;4827.05128331;2396.79486791;4727.05128310;5059.10256584;3219.48717734;-0.00000896;-0.00000896;2332.69230367;3978.71794817;2433.33332952;4208.07692301;3151.02563874;4365.12820541;4143.07692287;4369.74359003
4368.58974387;4832.30769356;2532.05127844;4726.66666771;5255.00000216;3221.41025426;-0.00000896;-0.00000896;2331.66666264;4010.89743541;2567.17948364;4235.12820513;3251.41025433;4368.07692336;4168.71794858;4369.74359003
4368.20512849;4860.38461671;2301.92307283;4698.84615482;4960.25641179;3218.07692093;-0.00000896;-0.00000896;2236.92307269;4107.56410229;2367.30768835;4206.41025634;3124.87179251;4369.10256438;4168.71794858;4369.61538490
4368.46153874;4860.64102697;2429.48717567;4695.00000098;5350.12820749;3216.53845939;-0.00000896;-0.00000896;2233.20512397;4168.71794858;2495.51281683;4206.41025634;3255.89743382;4367.17948746;4141.66666646;4369.61538490
4367.82051310;4857.82051414;2433.71794490;4663.58974450;5156.79487374;3250.64102356;-0.00000896;-0.00000896;2237.69230346;4168.71794858;2463.07691933;4206.02564096;3220.25640811;4369.87179515;4168.71794858;4369.61538490
4367.43589772;4830.89743715;2561.79486825;4634.35897520;5290.00000223;3282.69230568;-0.00000896;-0.00000896;2264.99999583;4204.74358968;2599.99999653;4206.79487173;3349.87179300;4370.38461567;4170.38461525;4369.61538490
4369.23076951;4827.17948843;2664.99999667;4632.82051366;5357.43589980;3317.43589549;-0.00000896;-0.00000896;2234.61538038;4205.76923070;2696.79486853;4203.71794865;3449.48717782;4369.61538490;4169.23076910;4369.61538490
4370.25641054;4826.92307818;2993.71794608;4632.56410340;5355.12820749;3348.07692120;-0.00000896;-0.00000896;2199.10255980;4208.84615378;3123.58974123;4204.61538455;3747.94871691;4370.51282079;4171.41025628;4369.61538490
4372.43589772;4825.38461664;3027.30768974;4633.46153930;5580.64102849;3353.71794685;-0.00000896;-0.00000896;2168.33332896;4237.30769231;3124.48717713;4176.15384602;3845.12820430;4370.89743618;4172.94871781;4369.61538490
4398.58974394;4799.61538580;2992.94871531;4631.79487263;5291.53846377;3382.82051102;-0.00000896;-0.00000896;2139.74358530;4269.48717956;3058.84615135;4174.74358961;3747.69230665;4370.25641054;4171.92307679;4402.43589779
4399.74359009;4795.64102683;2860.76922785;4601.53846231;5354.74359211;3384.10256230;-0.00000896;-0.00000896;2138.97435453;4267.30769238;2922.43589466;4202.30769224;3643.84615260;4371.41025669;4172.05128192;4402.43589779
4399.23076958;4765.00000112;2369.35897040;4598.58974436;5288.84615607;3388.33333153;-0.00000896;-0.00000896;2139.48717504;4235.89743590;2494.87179119;4174.61538448;3188.84615163;4372.56410285;4172.30769217;4402.43589779
4399.10256445;4762.56410368;2465.38461164;4596.66666743;5418.71795122;3447.69230603;-0.00000896;-0.00000896;2133.84614940;4237.05128206;2532.56409895;4175.89743576;3452.05128039;4398.20512856;4172.94871781;4402.43589779
4372.82051310;4760.51282163;2534.35897075;4568.33333403;5485.00000264;3511.79487027;-0.00000896;-0.00000896;2074.23076465;4236.28205129;2595.76922730;4171.53846140;4135.64102544;4373.07692336;4173.20512807;4369.48717977
4370.89743618;4759.87179599;2697.69230443;4562.82051352;5448.71795129;3514.10256258;229.99999153;-0.00000896;2038.46153381;4239.10256411;2758.07691995;4168.84615371;4303.33333348;4398.20512856;4173.33333320;4369.48717977
4371.15384644;4732.82051387;2825.25640727;4531.28205191;5318.71795101;3515.25640873;229.99999153;-0.00000896;2035.12820048;4241.41025641;2827.30768932;4170.89743576;4431.66666709;4371.92307720;4172.82051269;4369.48717977
4370.00000028;4731.28205233;2954.35897165;4500.25641082;5285.12820736;3548.20512675;229.99999153;-0.00000896;2008.46153374;4234.48717949;2959.35897165;4172.30769217;4497.82051338;4372.05128233;4173.71794858;4369.48717977
4368.46153874;4729.87179592;3024.23076666;4497.43589800;5417.82051533;3579.61538323;229.99999153;-0.00000896;2009.35896964;4234.35897436;3053.84615135;4169.87179474;4107.82051255;4372.94871823;4174.10256397;4369.48717977
4369.10256438;4730.25641130;2896.15384331;4470.38461587;5122.94871983;3612.43589612;8278.71795727;-0.00000896;2004.10255938;4239.48717949;2955.89743319;4168.97435884;3416.79487006;4398.33333368;4173.97435884;4369.48717977
4367.43589772;4730.89743694;2893.71794587;4464.87179536;5284.48718171;3615.12820381;8243.71795720;-0.00000896;1974.74358495;4236.02564103;2892.17948433;4143.07692287;3123.33333097;4372.69230797;4174.23076910;4369.48717977
4366.79487208;4729.10256515;2888.71794587;4433.07692350;5254.74359190;3615.76922945;229.99999153;-0.00000896;1970.12820034;4206.41025634;2888.33333049;4168.33333320;3153.58974130;4372.43589772;4173.97435884;4369.35897464
4365.64102592;4728.33333438;2959.23076652;4401.28205163;5158.07692503;3643.46153721;8243.71795720;-0.00000896;1969.48717470;4206.41025634;2928.46153569;4142.17948697;3612.05128073;4398.84615420;4174.61538448;4369.35897464
4339.61538483;4726.92307797;3054.48717699;4371.28205156;5057.69230943;3645.25640901;229.99999153;-0.00000896;1974.35896957;4238.07692308;3026.02563846;4168.58974345;3185.12820291;4398.58974394;4174.87179474;4336.53846175
4338.58974380;4727.56410361;3118.71794636;4365.25641054;5059.87179661;3676.02563985;8243.71795720;-0.00000896;1975.38461059;4205.38461532;3126.02563867;4142.43589723;3058.71794622;4372.69230797;4174.74358961;4336.53846175
4336.41025662;4728.46153951;3188.20512599;4335.76923098;4961.79487333;3680.12820395;229.99999153;-0.00000896;1972.94871316;4205.89743583;3187.30769009;4139.99999980;3086.41025398;4398.33333368;4174.99999986;4336.53846175
4336.41025662;4728.71794976;3223.33333118;4305.76923091;4994.87179647;3711.53846043;8243.71795720;-0.00000896;1974.87179008;4203.84615378;3220.89743375;4142.05128185;3250.38461330;4401.15384651;4174.87179474;4336.41025662
4336.92307714;4729.48718053;3249.61538253;4273.84615392;4960.64102717;3710.76922966;229.99999153;-0.00000896;2004.74358502;4175.38461525;3223.46153631;4142.56410236;3320.64102370;4398.58974394;4175.12820499;4336.41025662
4337.69230790;4731.15384720;3388.20512640;4267.56410264;4926.02564249;3742.30769127;8243.71795720;-0.00000896;2010.12820041;4203.84615378;3352.82051095;4138.84615364;3551.02563957;4399.61538497;4174.87179474;4336.41025662
4338.07692329;4759.48718060;3191.02563881;4238.58974359;4829.61538587;3744.99999896;229.99999153;-0.00000896;2037.94871330;4201.15384609;3189.10256188;4138.20512800;3551.79487034;4399.61538497;4175.25641012;4336.41025662
4339.10256431;4762.56410368;3322.43589549;4209.10256404;4895.51282191;3715.51281940;8243.71795720;-0.00000896;2041.41025176;4206.92307686;3315.64102370;4140.12820492;3844.10256327;4398.71794907;4175.25641012;4336.41025662
4365.76923105;4764.48718060;3351.02563915;4207.17948711;4764.87179599;3710.12820402;229.99999153;-0.00000896;2071.66666208;4206.41025634;3315.51281857;4139.23076903;4006.28205080;4400.12820548;4173.84615371;4369.23076951
4366.92307720;4765.00000112;3387.43589563;4203.46153840;4798.33333452;3683.71794754;8243.71795720;-0.00000896;2074.87179029;4206.02564096;3349.35897249;4140.38461518;4077.43589709;4401.92307727;4175.38461525;4369.23076951
4366.79487208;4765.64102676;3349.35897249;4201.02564096;4797.05128324;3678.33333216;229.99999153;-0.00000896;2101.28204677;4235.38461539;3255.12820305;4140.12820492;4069.99999966;4398.07692343;4175.38461525;4369.23076951
4365.51282079;4764.23077035;3513.58974206;4173.71794858;4924.10256557;3650.25640901;8243.71795720;-0.00000896;2100.76922626;4269.74358982;3385.38461358;4110.64102537;3878.07692232;4398.97435933;4175.89743576;4369.10256438
4367.30769259;4761.02564214;3519.61538309;4168.97435884;4861.41025773;3647.69230645;229.99999153;-0.00000896;2072.94871337;4267.69230777;3451.53845987;4139.35897415;4106.66666639;4397.94871830;4174.99999986;4369.10256438
4366.28205156;4733.07692412;3583.71794733;4142.43589723;4896.28205268;3616.92307561;8243.71795720;-0.00000896;2073.84614926;4239.35897436;3484.99999841;4139.61538441;4173.71794858;4398.33333368;4175.89743576;4369.10256438
4365.64102592;4701.28205226;3617.30769099;4140.64102544;4827.56410382;3645.64102439;229.99999153;-0.00000896;2074.23076465;4235.12820513;3484.48717789;4141.53846133;4044.10256369;4400.00000035;4176.02564089;4369.10256438
4340.12820534;4696.41025739;3648.46153721;4139.48717928;4960.51282205;3647.69230645;8243.71795720;-0.00000896;2067.82050824;4233.84615385;3484.74358815;4136.15384595;4142.56410236;4399.48717984;4201.79487173;4336.28205149
4338.84615406;4668.46153937;3514.10256258;4137.69230749;4759.48718060;3678.20512703;229.99999153;-0.00000896;2037.82050817;4206.02564096;3382.94871615;4137.82051262;4169.23076910;4372.82051310;4176.02564089;4336.28205149
4339.61538483;4694.23077021;3514.10256258;4139.23076903;4857.43589876;3683.97435780;8243.71795720;-0.00000896;2040.89743125;4169.74358961;3352.05128018;4140.89743569;4267.69230777;4398.46153881;4174.99999986;4336.28205149
4340.25641047;4698.46153944;3483.20512661;4137.17948697;4859.35897568;3712.17948607;229.99999153;-0.00000896;2069.35896978;4168.71794858;3383.97435717;4142.17948697;4305.25641040;4398.20512856;4176.15384602;4336.28205149
4365.12820541;4730.12820617;3485.89743430;4136.02564082;4858.84615517;3742.30769127;8243.71795720;-0.00000896;2072.43589285;4170.76923063;3321.66666472;4137.69230749;3811.53846064;4372.82051310;4176.02564089;4369.10256438
4365.25641054;4762.43589855;3579.10256272;4108.33333306;4896.41025780;3713.97435787;229.99999153;-0.00000896;2103.20512369;4141.92307672;3450.38461372;4139.74358954;3747.17948614;4400.00000035;4176.02564089;4369.10256438
4339.87179508;4793.20512939;3651.02563978;4107.17948691;4697.17948816;3712.69230658;8243.71795720;-0.00000896;2136.15384171;4170.12820499;3454.10256244;4136.79487159;3779.74358877;4398.33333368;4201.15384609;4336.28205149
4337.17948739;4825.76923202;3648.07692183;4108.46153819;4727.69230874;3683.58974241;229.99999153;-0.00000896;2166.28204691;4233.84615385;3454.10256244;4137.30769210;3840.51281968;4398.71794907;4201.15384609;4336.28205149
4335.76923098;4830.38461664;3678.58974241;4108.07692280;4826.15384741;3648.33333209;8243.71795720;-0.00000896;2166.28204691;4208.33333327;3547.82051137;4138.20512800;3938.84615322;4398.97435933;4174.61538448;4336.28205149
4335.12820534;4831.02564228;3617.30769099;4108.58974332;4726.79487284;3617.69230638;229.99999153;-0.00000896;2168.58973922;4241.02564103;3482.43589584;4140.51282031;3978.58974304;4398.33333368;4201.02564096;4336.28205149
4333.46153867;4831.02564228;3776.53846057;4108.58974332;4733.07692412;3618.33333202;8212.56411098;-0.00000896;2166.66666229;4267.69230777;3643.46153721;4140.25641005;4138.71794851;4399.35897471;4201.53846147;4336.28205149
4307.05128219;4831.66666792;3843.58974276;4107.82051255;4865.51282184;3614.23076791;69.61537579;-0.00000896;2139.23076479;4273.71794879;3710.25640915;4139.74358954;4270.89743597;4399.87179522;4201.79487173;4303.46153860
4304.87179501;4858.33333466;3941.92307630;4108.71794844;4859.87179620;3613.20512689;8274.61539317;-0.00000896;2135.76922633;4334.74358996;3778.33333236;4140.76923056;4402.05128240;4399.10256445;4201.79487173;4303.46153860
4305.89743604;4857.82051414;3945.25640963;4108.33333306;4963.71795025;3581.79487041;229.99999153;-0.00000896;2135.89743145;4366.79487208;3776.15384518;4138.07692287;4568.71794942;4398.58974394;4203.33333327;4303.46153860
4305.25641040;4831.79487305;4208.20512814;4106.53846126;4891.15384755;3547.56410111;229.99999153;-0.00000896;2140.89743145;4399.23076958;4010.64102516;4139.35897415;4792.94871913;4398.97435933;4202.43589737;4303.46153860
4304.10256425;4826.92307818;4299.74358989;4104.99999973;4992.43589904;3485.76922917;229.99999153;-0.00000896;2170.51281614;4432.05128247;4104.74358947;4142.82051262;4996.53846314;4399.23076958;4202.43589737;4303.46153860
4303.07692322;4793.97436016;4598.33333410;4076.41025607;4890.89743729;3482.17948559;229.99999153;-0.00000896;2171.66666229;4431.66666709;4335.12820534;4137.05128185;5322.30769460;4398.33333368;4202.56410250;4303.46153860
4274.74358982;4762.05128317;4693.58974457;4074.87179453;5028.33333500;3450.25640859;-0.00000896;-0.00000896;2172.69230332;4435.00000042;4496.92307748;4139.35897415;5517.94872066;4399.23076958;4202.69230763;4270.64102571
4273.71794879;4727.94871899;4764.35897547;4070.25640991;4864.48718081;3480.12820353;-0.00000896;-0.00000896;2170.64102127;4437.69230811;4501.41025697;4138.33333313;5483.97436162;4398.46153881;4202.94871788;4270.64102571
4272.82051289;4697.56410354;4857.56410389;4043.20512779;4830.76923202;3454.10256244;-0.00000896;-0.00000896;2170.89743152;4434.87179529;4631.79487263;4139.74358954;5876.15384963;4371.92307720;4175.89743576;4270.51282059
4204.61538455;4664.10256501;4962.17948871;4073.97435863;4857.56410389;3451.15384449;-0.00000896;-0.00000896;2169.87179050;4399.35897471;4733.71794976;4138.58974339;6139.10256814;4398.46153881;4203.46153840;4204.99999993
4202.05128199;4663.20512911;4993.46154006;4071.79487145;4892.43589883;3446.41025475;-0.00000896;-0.00000896;2140.12820068;4436.15384657;4825.51282177;4141.53846133;6178.07692718;4400.25641061;4204.23076917;4204.99999993
4201.02564096;4662.30769321;4962.56410410;4043.46153805;4662.30769321;3417.69230596;-0.00000896;-0.00000896;2135.89743145;4434.87179529;4759.74359086;4139.10256390;6112.69231166;4399.10256445;4204.99999993;4204.87179481
4201.53846147;4660.76923168;4926.41025787;4037.05128164;4697.30769328;3417.17948545;-0.00000896;-0.00000896;2104.10255959;4436.92307734;4732.43589848;4140.51282031;6172.69231180;4400.00000035;4204.48717942;4204.87179481
4203.84615378;4635.00000084;4796.79487298;4009.10256362;4598.58974436;3381.53845974;-0.00000896;-0.00000896;2135.51281607;4437.82051324;4627.94871879;4137.05128185;6106.92308089;4372.82051310;4201.92307686;4204.87179481
4203.97435891;4632.82051366;4928.46153992;4005.64102516;4697.82051380;3349.87179300;-0.00000896;-0.00000896;2140.25640581;4471.28205177;4793.58974477;4139.99999980;6145.00000403;4373.07692336;4205.51282045;4204.87179481
4204.74358968;4632.17948802;4923.97436044;3977.56410201;4762.05128317;3353.58974172;-0.00000896;-0.00000896;2139.74358530;4468.07692357;4759.74359086;4139.87179467;6207.82051699;4371.66666695;4205.25641019;4204.87179481
4204.99999993;4631.79487263;4894.87179627;3971.92307637;4594.87179564;3349.87179300;-0.00000896;-0.00000896;2168.71794434;4469.74359023;4699.35897534;4138.97435877;6111.66667063;4370.51282079;4206.28205122;4204.87179481
4204.48717942;4630.89743674;4698.07692405;3941.53846092;4666.79487270;3285.25640825;-0.00000896;-0.00000896;2203.33332903;4532.69230832;4562.94871865;4142.05128185;5980.38461907;4372.82051310;4233.97435898;4204.87179481
4203.07692301;4601.15384692;4733.84615489;3938.97435835;4759.10256522;3282.17948517;-0.00000896;-0.00000896;2232.82050859;4501.53846210;4563.20512890;4137.82051262;6043.20513203;4371.15384644;4206.28205122;4204.87179481
4174.99999986;4597.43589820;4664.10256501;3912.30769162;4765.64102676;3256.53845946;-0.00000896;-0.00000896;2236.79486756;4563.97435967;4470.12820562;4142.82051262;5843.46154187;4370.64102592;4206.92307686;4171.92307679
4171.53846140;4596.28205205;4730.12820617;3908.58974290;4762.05128317;3249.87179279;-0.00000896;-0.00000896;2264.87179071;4563.58974429;4597.82051359;4140.12820492;5975.64102933;4371.28205156;4204.35897429;4171.92307679
4169.61538448;4569.23076993;4991.02564263;3880.38461462;4956.53846307;3223.58974144;-0.00000896;-0.00000896;2267.05127789;4536.15384678;4799.87179606;4142.69230749;6105.38461935;4372.17948746;4207.56410250;4171.92307679
4143.07692287;4566.15384685;5287.69230992;3877.56410180;4799.35897554;3190.51281829;-0.00000896;-0.00000896;2272.43589327;4562.43589813;5185.76923279;4141.41025621;6401.41026100;4372.69230797;4207.82051275;4139.10256390
4139.61538441;4565.12820583;5484.61538726;3873.97435821;4860.12820645;3187.05127983;-0.00000896;-0.00000896;2305.12820103;4569.74359044;5320.64102794;4168.97435884;6503.97436377;4372.43589772;4208.71794865;4139.10256390
4136.41025621;4562.43589813;5645.38461838;3847.82051199;4827.05128331;3156.53845925;-0.00000896;-0.00000896;2332.56409854;4598.97435974;5518.97436169;4168.33333320;6565.76923571;4371.92307720;4233.97435898;4139.10256390
4108.97435870;4537.17948781;5680.12820819;3845.64102481;4864.10256543;3151.02563874;-0.00000896;-0.00000896;2336.66666264;4628.07692391;5554.23077201;4143.20512800;6632.43590251;4369.74359003;4208.71794865;4106.28205101
4107.43589716;4535.12820576;5717.30769544;3843.58974276;4700.76923175;3089.87179244;229.99999153;-0.00000896;2368.58973963;4635.51282135;5618.20513113;4169.35897422;6662.82051797;4368.20512849;4234.35897436;4106.28205101
4105.76923050;4529.74359037;5811.92308026;3843.46153763;4793.07692426;3059.61538212;8241.79488028;-0.00000896;2400.12820124;4666.02564193;5710.89743903;4170.64102551;6761.66667202;4370.38461567;4234.10256411;4106.28205101
4104.10256383;4501.41025697;5779.74359301;3842.94871712;4794.61538580;3055.89743340;8273.33334188;-0.00000896;2403.46153457;4698.20512918;5685.76923383;4170.89743576;6669.87180002;4369.87179515;4237.56410257;4106.28205101
4103.71794844;4499.48718005;5877.56410604;3845.25640943;4830.51282177;3023.71794615;8242.56411105;-0.00000896;2431.02563721;4730.12820617;5777.94872122;4170.64102551;6794.23077465;4367.05128233;4235.38461539;4106.28205101
4102.69230742;4496.66666723;5784.23077250;3872.94871719;4859.35897568;3021.79486923;229.99999153;-0.00000896;2435.51281669;4761.41025753;5714.10256723;4169.87179474;6701.66667188;4368.20512849;4235.89743590;4106.28205101
4077.82051248;4469.74359023;5717.43590057;3873.07692232;4765.00000112;2991.02563839;229.99999153;-0.00000896;2463.71794497;4793.46153965;5651.92307991;4143.33333313;6633.58974867;4369.23076951;4235.51282052;4073.46153812
4075.89743555;4465.25641075;5876.02564450;3844.61538379;4924.23077069;2958.46153576;229.99999153;-0.00000896;2495.64102196;4765.00000112;5779.87179814;4171.92307679;6767.94872330;4368.58974387;4236.53846154;4073.46153812
4072.56410222;4435.89743632;5745.00000320;3841.66666584;4731.28205233;2961.53845883;229.99999153;-0.00000896;2500.51281683;4763.84615496;5680.00000306;4171.41025628;6599.23077424;4367.17948746;4237.05128206;4073.46153812
4070.38461504;4434.87179529;5711.92308005;3813.20512731;4925.00000146;2989.48717685;229.99999153;-0.00000896;2500.25640658;4766.53846265;5615.64102856;4170.25641012;6731.66667195;4367.30769259;4237.05128206;4073.46153812
4044.35897395;4436.15384657;5620.00000292;3811.15384525;5022.17948885;2957.17948447;229.99999153;-0.00000896;2531.92307331;4763.84615496;5553.84615663;4176.15384602;6696.15385137;4367.69230797;4237.82051282;4040.64102523
4043.97435856;4435.12820555;5585.76923362;3807.82051192;4963.33333487;2921.92307415;229.99999153;-0.00000896;2593.97435550;4824.87179613;5482.82051546;4175.38461525;6600.25641526;4367.43589772;4237.94871795;4040.64102523
4042.17948677;4435.12820555;5615.12820805;3780.25640929;5090.76923258;2895.25640741;229.99999153;-0.00000896;2598.58974012;4826.15384741;5514.10256682;4172.43589730;6637.17949226;4339.61538483;4238.84615385;4040.51282010
4039.61538420;4433.58974401;5482.94872059;3777.43589647;5057.05128379;2894.35897151;229.99999153;-0.00000896;2627.30768891;4857.82051414;5382.94872038;4173.20512807;6468.71795345;4340.00000021;4239.23076923;4040.51282010
4039.87179446;4434.87179529;5451.15384873;3747.94871691;5090.38461720;2858.20512529;229.99999153;-0.00000896;2660.38461205;4924.35897582;5356.28205365;4176.02564089;6404.61538921;4339.48717970;4237.43589744;4040.51282010
4038.07692266;4432.94871837;5420.76923327;3745.38461435;5127.30769419;2790.89743284;229.99999153;-0.00000896;2726.15384296;4928.58974505;5320.25641255;4202.17948711;6209.23077340;4339.87179508;4240.12820513;4040.51282010
4037.56410215;4403.97435933;5389.23077167;3742.30769127;4988.97436058;2764.10256098;229.99999153;-0.00000896;2764.61538149;4962.17948871;5317.82051512;4174.99999986;6172.69231180;4339.74358996;4240.64102564;4040.51282010
4010.38461490;4400.00000035;5449.10256668;3714.61538351;5218.58974568;2790.64102259;229.99999153;-0.00000896;2795.12820207;4961.92307846;5324.74359204;4202.05128199;6176.15385026;4337.94871816;4238.84615385;4007.69230721
4005.51282003;4398.58974394;5387.30769474;3711.28205017;5123.07692496;2761.28204816;229.99999153;-0.00000896;2822.69230471;4992.82051442;5259.23077139;4201.79487173;6111.92308089;4336.66666688;4241.28205129;4007.69230721
3979.23076868;4372.82051310;5321.79487409;3683.46153728;5156.02564298;2726.15384296;229.99999153;-0.00000896;2857.17948426;4995.25641186;5285.64102787;4204.23076917;6079.87179877;4334.61538483;4241.79487180;3974.87179432
3978.07692252;4370.64102592;5286.66666889;3680.25640908;5383.33333577;2725.51281732;229.99999153;-0.00000896;2894.99999715;5027.05128372;5189.23077125;4206.41025634;5979.35897805;4336.15384637;4241.79487180;3974.87179432
3975.38461483;4368.71794900;5220.00000209;3678.97435780;5159.61538656;2660.51281718;229.99999153;-0.00000896;2957.56409986;5057.30769405;5121.92307880;4203.58974352;5915.12820868;4335.89743611;4267.56410264;3974.87179432
3971.79487124;4338.71794893;5291.79487402;3651.02563978;5185.64102766;2630.25640686;229.99999153;-0.00000896;3019.48717692;5061.15384789;5225.89743799;4202.69230763;6007.94872170;4336.02564124;4267.56410264;3974.74358919
3944.10256348;4335.00000021;5354.87179724;3647.94871670;5220.12820722;2633.71794532;229.99999153;-0.00000896;3025.12820256;5056.02564277;5320.38461768;4204.10256404;6106.92308089;4307.05128219;4268.46153853;3941.92307630
3941.41025579;4335.89743611;5322.82051512;3646.02563978;5258.46154062;2662.05127872;229.99999153;-0.00000896;3024.48717692;5061.28205302;5253.58974575;4207.56410250;6011.79487555;4306.79487194;4268.58974366;3941.92307630
3941.28205066;4334.10256431;5317.82051512;3617.30769099;5319.48718178;2627.05127865;229.99999153;-0.00000896;3060.25640776;5088.58974540;5127.43589932;4204.23076917;5976.53846523;4305.64102578;4269.48717956;3941.92307630
3940.89743528;4333.58974380;5387.05128449;3616.02563971;5223.84615593;2594.10256063;229.99999153;-0.00000896;3183.71794650;5091.66666848;5225.12820722;4204.10256404;6076.79487569;4303.58974373;4269.61538469;3941.92307630
3939.74358912;4333.58974380;5418.20513071;3615.38461407;5224.48718158;2596.79486832;229.99999153;-0.00000896;3191.15384393;5123.46154034;5193.33333535;4207.43589737;6043.46154229;4304.48717963;4269.23076930;3941.92307630
3912.94871726;4334.48717970;5388.46154090;3611.66666535;5258.71795088;2567.69230415;229.99999153;-0.00000896;3249.99999792;5125.89743778;5222.43589952;4206.15384609;6010.00000376;4300.25641040;4268.07692315;3909.10256341
3913.07692239;4334.61538483;5448.20513078;3584.35897297;5254.87179703;2532.82050921;229.99999153;-0.00000896;3287.43589542;5157.30769426;5188.97436099;4235.25641026;5977.56410625;4303.46153860;4269.87179495;3909.10256341
3912.56410187;4334.61538483;5385.12820756;3583.84615246;5188.33333535;2496.28204760;229.99999153;-0.00000896;3383.07692127;5191.41025843;5158.84615580;4208.84615378;5849.74359315;4273.58974366;4270.64102571;3909.10256341
3909.99999931;4333.84615406;5483.46154111;3583.84615246;5154.35897631;2467.17948343;229.99999153;-0.00000896;3479.48717789;5222.17948927;5257.69230985;4208.97435891;5848.97436238;4272.56410264;4270.64102571;3909.10256341
3880.25640950;4305.89743604;5385.00000244;3613.58974227;5257.94872011;2428.97435516;229.99999153;-0.00000896;3519.35897283;5256.92307908;5187.94871997;4208.58974352;5746.28205448;4273.07692315;4271.41025648;3876.28205052
3878.46153770;4301.79487194;5453.20513078;3617.30769099;5251.28205344;2366.15384220;229.99999153;-0.00000896;3585.12820374;5289.61538684;5192.56410458;4236.41025641;5714.23077236;4272.43589751;4271.92307700;3876.28205052
3876.53846078;4270.51282059;5382.94872038;3650.38461414;5389.87179731;2337.69230367;229.99999153;-0.00000896;3675.89743472;5290.00000223;5088.71795053;4233.84615385;5551.28205407;4271.28205136;4274.10256418;3876.28205052
3845.64102481;4241.02564103;5451.92307950;3682.94871677;5617.17949010;2367.05127809;229.99999153;-0.00000896;3713.97435787;5289.23077146;5258.33333549;4208.71794865;5579.61538747;4268.97435905;4272.94871802;3843.58974276
3812.69230679;4237.05128206;5254.23077139;3713.07692197;5320.89743819;2363.33332938;229.99999153;-0.00000896;3746.66666563;5287.17948941;5026.15384783;4234.61538462;5287.17948941;4268.58974366;4273.20512828;3810.76922987
3809.23076833;4208.97435891;5226.15384824;3742.43589640;5418.07692558;2334.10256008;229.99999153;-0.00000896;3747.69230665;5356.02564339;5022.17948885;4236.41025641;5225.12820722;4241.79487180;4273.58974366;3810.76922987
3807.17948628;4205.12820506;5092.05128386;3746.15384512;5553.33333612;2270.89743173;8242.30770079;-0.00000896;3812.69230679;5383.33333577;4896.79487319;4234.87179488;5188.33333535;4240.76923077;4273.46153853;3810.76922987
3779.48717852;4172.17948704;5061.66666841;3749.35897332;5516.53846425;2304.23076513;136.28204260;-0.00000896;3847.43589661;5357.43589980;4860.76923209;4234.35897436;5123.97436085;4240.25641026;4274.61538469;3777.94871698
3776.66666570;4142.30769210;2824.87179189;3778.46153749;5226.41025850;2332.56409854;229.99999153;-0.00000896;3875.89743514;5383.07692551;2725.12820194;4235.64102564;3090.51281808;4237.69230770;4273.84615392;3777.94871698
3776.28205031;4137.82051262;2399.10256022;3780.38461442;5547.82051560;2304.74358565;136.28204260;-0.00000896;3912.94871726;5386.28205372;2206.79486749;4236.41025641;2756.92307380;4237.56410257;4271.79487187;3777.94871698
3775.38461442;4110.12820485;2369.23076527;3781.92307595;5454.10256668;2333.07691905;-0.00000896;-0.00000896;3975.12820458;5387.69231013;2237.17948294;4208.84615378;2661.02563769;4235.64102564;4273.58974366;3777.94871698
3774.61538365;4106.28205101;2234.10255987;3809.48717859;5383.20513064;2336.92307290;-0.00000896;-0.00000896;4011.02564054;5383.58974603;2035.12820048;4238.20512821;2497.94871427;4235.25641026;4274.23076930;3778.07692211
3748.46153742;4077.82051248;2434.61538080;3809.10256320;5616.28205420;2333.07691905;-0.00000896;-0.00000896;4102.56410229;5383.20513064;2266.02563686;4237.94871795;2727.82050963;4234.61538462;4273.84615392;3745.25640922
3743.71794768;4074.99999966;2499.23076555;3810.12820423;5487.30769495;2334.35897033;-0.00000896;-0.00000896;4143.46153826;5353.97436134;2298.97435488;4238.58974359;2757.17948406;4208.46153840;4271.28205136;3745.25640922
3715.51281940;4073.46153812;2468.58973984;3812.82051192;5550.64102842;2304.74358565;-0.00000896;-0.00000896;4205.12820506;5350.89743826;2397.82050893;4238.20512821;2663.58974026;4207.94871788;4273.71794879;3712.43589633
3712.17948607;4071.15384581;2398.58973970;3841.28205045;5579.74359260;2303.97435488;-0.00000896;-0.00000896;4270.25641033;5321.79487409;2300.64102155;4236.66666667;2894.87179203;4204.99999993;4273.46153853;3712.43589633
3682.82051164;4044.61538420;2466.28204753;3845.76922994;5554.61538740;2300.25640616;-0.00000896;-0.00000896;4336.28205149;5285.64102787;2334.35897033;4237.69230770;3026.41025384;4204.99999993;4273.46153853;3679.61538344
3678.71794754;4044.74358933;2466.15384241;3874.48717873;5811.92308026;2331.02563700;-0.00000896;-0.00000896;4366.41025669;5289.35897659;2364.23076527;4236.53846154;3092.43589501;4201.79487173;4274.10256418;3679.61538344
3678.20512703;4070.38461504;2631.79486839;3877.69230693;5620.38461831;2302.30768821;-0.00000896;-0.00000896;4398.58974394;5285.12820736;2433.46153464;4240.00000000;3184.35897214;4175.51282038;4274.48717956;3679.61538344
3676.66666549;4043.20512779;2764.61538149;3907.56410187;5778.97436224;2271.41025224;-0.00000896;-0.00000896;4437.43589786;5258.84615600;2626.28204788;4240.12820513;3190.25640804;4174.48717935;4273.20512828;3679.61538344
3648.58974234;4041.02564061;2827.94871496;3909.61538392;5455.25641283;2301.66666257;-0.00000896;-0.00000896;4467.94871844;5256.02564318;2693.46153520;4236.15384616;3250.64102356;4174.99999986;4299.61538476;3646.79487055
3646.79487055;4041.15384574;2824.23076625;3910.76923008;5682.56410563;2297.94871385;-0.00000896;-0.00000896;4501.02564159;5252.05128421;2762.56409944;4238.46153847;3158.33333104;4172.17948704;4272.17948725;3646.79487055
3645.38461414;4041.53846113;3086.53845911;3939.87179425;5745.12820833;2237.56409833;-0.00000896;-0.00000896;4595.38461615;5222.17948927;2988.97435634;4267.69230777;3355.25640838;4173.46153833;4270.51282059;3646.92307568
3614.48717817;4039.10256369;3321.28204934;3942.43589681;5652.17949017;2239.87179064;-0.00000896;-0.00000896;4663.33333424;5189.87179689;3158.58974130;4239.35897436;3578.97435759;4172.43589730;4271.28205136;3614.10256279
3581.15384477;4037.05128164;3319.74358780;3944.10256348;5745.38461858;2239.87179064;-0.00000896;-0.00000896;4668.46153937;5189.35897638;3188.58974137;4240.12820513;3514.74358822;4169.48717935;4272.69230777;3581.28204990
3552.05128060;4036.92307651;3545.64102419;3971.41025586;5615.38461831;2237.69230346;-0.00000896;-0.00000896;4694.10256508;5222.17948927;3353.46153659;4240.89743590;3811.28205038;4168.71794858;4270.64102571;3548.46153701
3551.15384470;4011.92307644;3778.20512724;3973.97435842;5551.15384894;2206.79486749;-0.00000896;-0.00000896;4731.41025746;5193.33333535;3616.92307561;4238.33333334;3909.99999931;4142.69230749;4269.61538469;3548.46153701
3547.30769085;4009.61538413;3709.23076812;4004.61538413;5587.56410542;2199.35897005;-0.00000896;-0.00000896;4832.30769356;5158.84615580;3646.15384491;4240.25641026;3809.48717859;4139.35897415;4269.10256418;3548.46153701
3518.07692155;4005.89743541;3517.56410104;4010.25640977;5516.41025912;2199.35897005;-0.00000896;-0.00000896;4862.30769363;5160.12820708;3484.74358815;4240.89743590;3552.43589598;4139.74358954;4271.02564110;3515.64102412
3514.48717796;4004.35897388;3581.02563964;4040.38461497;5452.30769488;2205.12820082;-0.00000896;-0.00000896;4893.46153986;5156.92307887;3544.61538316;4238.33333334;3683.33333216;4140.51282031;4267.30769238;3515.64102412
3486.02563943;3974.74358919;3782.30769134;4041.02564061;5552.17948996;2173.46153409;-0.00000896;-0.00000896;4957.43589897;5127.30769419;3714.23076812;4241.79487180;3847.69230686;4138.84615364;4267.43589751;3482.82051123
3481.41025482;3944.61538399;3711.28205017;4042.69230728;5386.15384859;2171.66666229;-0.00000896;-0.00000896;4995.25641186;5087.43589925;3683.71794754;4241.02564103;3610.89743458;4137.05128185;4241.15384616;3482.82051123
3452.69230603;3940.51281989;3615.64102432;4072.17948684;5415.89743840;2166.28204691;-0.00000896;-0.00000896;5024.61538629;5061.02564277;3613.46153715;4241.66666667;3354.23076736;4136.28205108;4240.64102564;3450.12820346
3446.92307526;3912.17948649;4271.66666674;4104.87179460;5745.25641346;2168.33332896;-0.00000896;-0.00000896;5056.79487354;5025.51282218;4268.07692315;4239.61538462;3844.74358891;4136.02564082;4239.48717949;3450.12820346
3417.05128032;3907.69230700;4533.97435960;4107.94871767;5679.35897742;2170.38461101;229.99999153;-0.00000896;5060.89743764;4961.15384769;4536.79487242;4240.00000000;3879.48717873;4109.23076896;4239.10256411;3417.30769057
3387.17948538;3879.23076847;4565.64102634;4137.69230749;5517.94872066;2204.48717518;229.99999153;-0.00000896;5055.64102738;4897.94871934;4529.61538524;4238.58974359;3880.51281975;4108.46153819;4238.58974359;3384.48717768
3385.64102384;3878.07692232;4564.23076993;4138.71794851;5482.43590008;2234.99999577;229.99999153;-0.00000896;5024.74359142;4890.64102703;4470.89743639;4241.92307693;3844.23076840;4105.76923050;4237.05128206;3384.48717768
3385.51281871;3877.56410180;4529.74359037;4139.61538441;5383.46154090;2239.61538038;229.99999153;-0.00000896;4996.15384776;4798.46153965;4432.82051324;4241.15384616;3745.76922973;4105.76923050;4235.25641026;3384.48717768
3386.41025461;3879.48717873;4499.48718005;4141.53846133;5455.51282309;2267.30768814;138.33332465;-0.00000896;4995.76923237;4733.20512925;4405.38461574;4240.12820513;3548.07692162;4103.84615357;4234.87179488;3384.48717768
3414.48717775;3906.79487110;4566.15384685;4141.28205108;5613.84615677;2268.20512404;138.33332465;-0.00000896;5023.20512988;4665.64102655;4531.15384678;4267.94871802;3582.56410118;4105.51282024;4207.17948711;3417.30769057
3418.71794698;3909.10256341;4699.87179585;4141.15384595;5385.89743833;2265.12820096;229.99999153;-0.00000896;5028.84615552;4635.25641109;4635.00000084;4266.92307700;3577.94871656;4105.89743562;4207.43589737;3417.30769057
3446.28204962;3908.84615316;4730.89743694;4141.28205108;5353.84615621;2265.76922660;138.33332465;-0.00000896;5057.69230943;4595.38461615;4698.58974457;4241.66666667;3516.02563950;4104.23076896;4206.66666660;3450.12820346
3451.53845987;3909.87179418;4825.25641151;4140.25641005;5152.94871990;2238.58973935;229.99999153;-0.00000896;5089.10256591;4535.51282114;4731.53846258;4268.58974366;3451.53845987;4104.10256383;4204.87179481;3450.12820346
3481.92307533;3911.66666598;4701.41025739;4141.15384595;5349.74359211;2238.97435474;138.33332465;-0.00000896;5092.17948899;4530.12820576;4665.76923168;4268.84615392;3252.30769023;4077.30769196;4204.10256404;3482.94871635
3511.79487027;3939.74358912;4701.41025739;4168.71794858;5323.07692537;2266.66666250;229.99999153;-0.00000896;5094.35897617;4466.66666716;4633.97435981;4266.79487187;3186.28204906;4102.94871767;4205.25641019;3515.76922924
3518.58974206;3944.23076861;4763.58974471;4171.53846140;5124.23077111;2269.10255994;138.33332465;-0.00000896;5126.02564291;4431.28205170;4695.25641123;4241.28205129;2960.12820242;4103.84615357;4202.17948711;3515.76922924
3551.79487034;3972.05128150;4759.87179599;4201.92307686;5120.51282239;2268.07691891;229.99999153;-0.00000896;5157.94871990;4399.48717984;4665.89743680;4268.84615392;2860.89743298;4103.20512793;4201.41025634;3548.71794726
3582.82051143;3975.12820458;4733.97436002;4205.25641019;4956.41025794;2269.48717532;138.33332465;-0.00000896;5192.56410458;4306.79487194;4632.69230853;4241.15384616;2759.48717636;4075.64102530;4175.12820499;3581.53846015
3612.43589612;3978.97435842;4734.10256515;4236.92307693;5060.00000174;2235.76922653;229.99999153;-0.00000896;5226.15384824;4299.61538476;4661.66666757;4267.82051289;2826.41025343;4076.02564068;4173.97435884;3614.35897304
3617.94871663;4005.76923029;4599.61538538;4241.92307693;4893.71795011;2204.23076493;138.33332465;-0.00000896;5253.07692523;4269.74358982;4465.38461587;4241.41025641;2698.97435571;4075.51282017;4173.71794858;3614.35897304
3647.69230645;4008.20512772;4733.07692412;4273.33333341;4988.71795032;2200.76922646;229.99999153;-0.00000896;5225.00000209;4237.69230770;4661.41025732;4268.20512828;2828.58974061;4074.87179453;4171.02564089;3647.17948593
3650.38461414;4010.64102516;4731.92307797;4332.82051303;5024.23077090;2202.43589313;138.33332465;-0.00000896;5222.30769440;4233.97435898;4627.69230853;4269.87179495;2824.23076625;4076.41025607;4169.61538448;3647.30769106
3678.97435780;4011.02564054;4892.56410396;4339.10256431;4960.25641179;2203.58973929;229.99999153;-0.00000896;5191.66666869;4175.38461525;4730.76923182;4269.87179495;2992.56409993;4077.30769196;4170.51282038;3680.12820395
3680.25640908;4011.41025593;4829.74359100;4368.20512849;4695.51282149;2201.15384185;138.33332465;-0.00000896;5189.23077125;4172.05128192;4661.92307783;4268.71794879;3025.76922820;4076.15384581;4168.20512807;3680.12820395
3682.30769113;4010.25640977;4792.82051401;4373.20512849;4760.64102676;2200.51281621;229.99999153;-0.00000896;5160.76923272;4168.84615371;4635.00000084;4271.66666674;3154.23076694;4102.94871767;4169.35897422;3680.12820395
3683.58974241;4008.58974311;4762.30769342;4400.12820548;4825.38461664;2172.30768793;138.33332465;-0.00000896;5154.74359169;4137.56410236;4568.33333403;4269.61538469;3152.17948489;4077.05128171;4171.02564089;3680.12820395
3708.84615274;4006.53846106;4731.53846258;4400.76923112;4761.79487291;2171.53845716;229.99999153;-0.00000896;5125.38461726;4107.43589716;4566.28205198;4269.10256418;3221.15384400;4077.56410222;4143.07692287;3712.94871684
3683.84615267;3978.97435842;4893.58974498;4402.94871830;4794.48718067;2166.41025204;138.33332465;-0.00000896;5122.69230957;4102.56410229;4700.12820610;4272.82051289;3186.92307470;4076.41025607;4142.30769210;3680.12820395
3683.20512703;3975.51281996;4830.12820638;4402.43589779;4825.00000125;2171.15384178;229.99999153;-0.00000896;5089.61538643;4070.12820478;4663.71794963;4270.89743597;3157.69230540;4077.05128171;4141.15384595;3680.12820395
3682.69230651;3973.33333278;4892.30769370;4402.94871830;4763.71794983;2170.38461101;138.33332465;-0.00000896;5058.20512995;4010.64102516;4728.84615489;4269.74358982;3254.61538253;4076.41025607;4139.87179467;3680.12820395
3683.07692190;3946.28205066;4762.56410368;4404.48717984;4766.15384727;2170.12820075;229.99999153;-0.00000896;5054.48718123;3978.20512765;4666.28205219;4271.15384623;3255.64102356;4103.20512793;4139.87179467;3680.12820395
3683.84615267;3944.99999938;4727.82051387;4404.61538497;4763.20512932;2139.99999556;138.33332465;-0.00000896;5023.33333500;3945.51281989;4664.74359065;4271.41025648;3321.15384421;4103.07692280;4138.20512800;3680.12820395
3709.99999889;3941.41025579;4726.79487284;4430.76923119;4733.71794976;2139.35896992;229.99999153;-0.00000896;4992.56410417;3911.41025572;4667.30769321;4270.64102571;3348.07692120;4102.82051255;4139.23076903;3712.94871684
3710.89743479;3939.61538399;4794.48718067;4432.43589786;4796.28205247;2168.33332896;138.33332465;-0.00000896;4931.15384762;3880.38461462;4731.02564207;4272.69230777;3515.89743437;4104.61538434;4136.53846133;3712.94871684
3713.71794761;3938.97435835;4862.30769363;4434.35897478;4794.74359093;2169.10255973;229.99999153;-0.00000896;4897.43589883;3841.28205045;4795.00000119;4272.43589751;3546.02563957;4106.15384588;4136.53846133;3712.94871684
3716.79487069;3912.56410187;4890.38461678;4434.35897478;4799.61538580;2169.23076486;138.33332465;-0.00000896;4892.69230909;3814.23076833;4826.92307818;4273.71794879;3644.99999875;4105.51282024;4109.87179460;3712.94871684
3744.99999896;3912.94871726;4863.46153979;4434.87179529;4733.84615489;2172.30768793;229.99999153;-0.00000896;4861.66666799;3776.15384518;4798.71794990;4272.82051289;3645.25640901;4104.87179460;4108.46153819;3745.76922973
3747.30769127;3912.56410187;4760.64102676;4434.61538504;4666.79487270;2200.89743159;8212.43590585;-0.00000896;4858.84615517;3745.64102460;4697.30769328;4274.61538469;3579.87179349;4106.53846126;4108.20512793;3745.76922973
3776.02564006;3912.56410187;4732.17948823;4436.79487222;4732.56410361;2173.33332896;34.10255521;-0.00000896;4832.69230895;3680.76922959;4693.58974457;4301.02564117;3647.69230645;4105.51282024;4107.69230742;3778.58974262
3778.71794775;3912.43589674;4694.23077021;4438.07692350;4668.20512911;2169.35896999;8243.58975207;-0.00000896;4831.02564228;3679.87179369;4635.25641109;4300.64102578;3644.48717824;4106.02564075;4106.79487152;3778.58974262
3779.74358877;3911.92307623;4666.15384706;4466.28205177;4695.25641123;2199.23076493;229.99999153;-0.00000896;4825.64102690;3646.53846029;4628.46153930;4274.61538469;3645.51281927;4110.38461511;4105.64102537;3778.71794775
3780.76922980;3912.56410187;4729.35897541;4469.87179536;4634.48718032;2204.87179057;229.99999153;-0.00000896;4793.58974477;3584.23076784;4700.89743687;4300.51282066;3716.53846043;4106.53846126;4105.38461511;3778.71794775
3781.15384518;3912.56410187;4762.82051394;4497.82051338;4600.76923154;2203.07691877;229.99999153;-0.00000896;4763.97436009;3549.35897290;4759.61538573;4274.23076930;3780.12820416;4109.87179460;4103.84615357;3778.71794775
3782.05128108;3913.20512751;5159.10256605;4502.94871851;4628.97435981;2204.99999570;229.99999153;-0.00000896;4728.07692412;3516.02563950;5092.94871976;4273.84615392;4168.46153833;4109.10256383;4102.94871767;3778.71794775
3808.84615295;3939.74358912;5650.12820812;4531.15384678;4398.71794907;2234.35897012;-0.00000896;-0.00000896;4667.82051373;3514.61538309;5652.82051581;4273.33333341;4597.69230846;4108.20512793;4102.82051255;3811.53846064
3808.97435807;3941.79487117;5586.53846439;4534.35897499;4503.58974415;2235.38461115;-0.00000896;-0.00000896;4632.56410340;3451.15384449;5587.05128490;4272.05128212;4529.35897499;4110.38461511;4103.07692280;3811.53846064
3810.89743500;3942.43589681;5613.46154138;4535.00000063;4303.71794886;2203.46153416;-0.00000896;-0.00000896;4629.61538545;3418.97435724;5554.61538740;4271.79487187;4501.02564159;4136.79487159;4076.28205094;3811.53846064
3811.66666577;3941.53846092;5423.46154097;4536.15384678;4398.58974394;2235.38461115;-0.00000896;-0.00000896;4596.79487256;3414.10256237;5452.82051540;4273.33333341;4431.53846196;4135.64102544;4075.51282017;3811.53846064
3811.28205038;3944.23076861;5317.82051512;4536.41025704;4334.23076944;2269.74358558;-0.00000896;-0.00000896;4502.17948774;3383.97435717;5318.58974589;4274.10256418;4266.79487187;4138.84615364;4075.38461504;3811.53846064
3812.56410166;3945.38461476;5288.07692530;4562.43589813;4370.00000028;2233.97435474;-0.00000896;-0.00000896;4468.71794921;3352.05128018;5252.30769447;4299.74358989;4273.20512828;4138.46153826;4075.12820478;3811.53846064
3811.41025551;3943.33333271;5421.02564353;4535.12820576;4173.71794858;2233.71794448;-0.00000896;-0.00000896;4497.30769287;3318.20512626;5353.46154083;4274.23076930;4334.61538483;4138.97435877;4074.23076889;3811.53846064
3779.35897339;3939.61538399;5350.64102801;4534.35897499;4400.89743625;2206.92307262;-0.00000896;-0.00000896;4499.35897492;3283.46153645;5288.46154069;4299.87179501;4400.76923112;4141.02564082;4073.07692273;3778.71794775
3746.28205024;3912.05128136;5354.10256647;4534.35897499;3808.71794782;2233.33332910;-0.00000896;-0.00000896;4464.48717998;3254.23076715;5289.10256633;4300.76923091;4365.25641054;4139.48717928;4072.94871761;3745.89743486
3742.17948614;3911.66666598;5290.38461761;4536.79487242;4402.30769266;2298.46153437;-0.00000896;-0.00000896;4370.76923105;3223.97435682;5220.25641234;4300.12820527;4365.25641054;4139.99999980;4071.79487145;3745.89743486
3716.15384505;3939.48717887;5481.28205393;4566.79487249;4137.30769210;2334.35897033;-0.00000896;-0.00000896;4336.92307714;3156.92307463;5384.10256654;4272.43589751;4469.48717998;4142.17948697;4070.89743555;3713.07692197
3716.66666556;3972.05128150;5484.23077188;4596.53846231;3943.97435835;2431.53845772;-0.00000896;-0.00000896;4269.23076930;3152.69230540;5390.12820756;4274.35897443;4536.41025704;4169.35897422;4071.02564068;3713.20512710
3742.94871691;4008.20512772;5417.30769481;4602.82051359;3647.43589619;2463.71794497;-0.00000896;-0.00000896;4172.56410243;3088.84615142;5287.56410479;4273.58974366;4434.61538504;4168.58974345;4071.41025607;3746.02563999
3743.97435794;4040.51282010;5157.17948913;4629.48718032;3581.53846015;2430.64102182;-0.00000896;-0.00000896;4138.46153826;3087.82051039;5028.71795039;4272.94871802;4268.07692315;4170.25641012;4069.74358940;3746.02563999
3746.92307588;4073.84615350;4961.66666820;4629.35897520;3416.79487006;2396.02563714;-0.00000896;-0.00000896;4135.76923056;3056.53845904;4830.38461664;4272.43589751;4138.84615364;4170.12820499;4044.87179446;3746.02563999
3746.66666563;4105.38461511;4795.51282170;4634.23077007;4041.66666625;2365.38461143;-0.00000896;-0.00000896;4136.66666646;3056.28204878;4664.10256501;4273.46153853;4004.10256362;4173.97435884;4044.87179446;3746.02563999
3744.99999896;4135.76923056;4830.89743715;4667.17948809;4041.41025600;2402.69230380;-0.00000896;-0.00000896;4043.58974318;3056.79486930;4732.05128310;4273.97435905;4043.33333292;4173.46153833;4043.20512779;3746.02563999
3745.12820409;4143.46153826;4991.92307853;4668.20512911;4077.69230735;2464.10256035;-0.00000896;-0.00000896;3972.82051227;3087.05127962;4764.74359086;4274.48717956;4077.43589709;4176.28205115;4044.61538420;3746.02563999
3746.28205024;4175.25641012;5089.35897617;4668.20512911;4141.41025621;2463.58973984;-0.00000896;-0.00000896;3844.61538379;3088.33333091;4894.10256550;4274.48717956;4170.25641012;4175.51282038;4042.30769189;3746.02563999
3747.30769127;4204.35897429;4963.33333487;4665.64102655;4140.25641005;2399.74358586;-0.00000896;-0.00000896;3841.79487096;3119.74358738;4766.28205240;4273.58974366;4106.92307665;4202.17948711;4043.97435856;3746.02563999
3746.41025537;4206.02564096;4862.05128338;4663.84615475;4141.92307672;2433.20512439;-0.00000896;-0.00000896;3808.46153756;3118.84615149;4699.48718046;4274.48717956;4011.66666618;4202.30769224;4044.10256369;3746.02563999
3747.43589640;4234.74358975;4860.89743722;4665.51282142;4268.33333341;2435.51281669;-0.00000896;-0.00000896;3746.15384512;3123.07692072;4698.20512918;4273.97435905;4041.53846113;4204.23076917;4044.35897395;3746.02563999
3748.71794768;4240.64102564;4696.15384713;4666.79487270;4174.99999986;2499.61538094;-0.00000896;-0.00000896;3677.56410139;3156.02563874;4531.92307755;4300.00000014;3844.23076840;4204.99999993;4044.87179446;3746.02563999
3774.87179390;4272.56410264;4761.02564214;4667.56410347;4335.38461560;2494.61538094;-0.00000896;-0.00000896;3614.74358843;3187.82051060;4595.89743667;4274.35897443;3912.69230700;4205.89743583;4071.02564068;3778.84615288
3777.17948621;4299.61538476;4535.89743653;4664.61538552;4237.82051282;2436.28204746;229.99999153;-0.00000896;3584.87179349;3188.33333111;4432.56410298;4273.84615392;3774.35897339;4235.38461539;4044.99999959;3778.84615288
3649.99999875;4273.33333341;4794.35897554;4728.33333438;4535.51282114;2368.97435502;229.99999153;-0.00000896;3381.28204948;3382.94871615;4663.33333424;4273.71794879;3942.56410194;4236.92307693;4070.89743555;3647.69230645
3677.05128087;4274.48717956;4695.51282149;4730.51282156;4568.07692378;2462.17948343;229.99999153;-0.00000896;3283.97435696;3383.71794692;4632.17948802;4271.92307700;3972.56410201;4241.02564103;4071.41025607;3680.51281934
3681.92307575;4306.15384630;4466.15384664;4732.43589848;4663.33333424;2533.97435536;229.99999153;-0.00000896;3092.30768988;3354.48717761;4401.53846189;4273.07692315;3745.51281947;4241.66666667;4072.17948684;3680.51281934
3716.53846043;4334.48717970;4269.74358982;4697.56410354;4730.76923182;2562.56409902;229.99999153;-0.00000896;3086.92307449;3320.38461344;4238.84615385;4274.23076930;3579.23076784;4266.92307700;4072.56410222;3713.20512710
3775.38461442;4366.53846182;4168.46153833;4632.94871879;4701.15384713;2596.02563756;229.99999153;-0.00000896;3059.74358725;3318.97435703;4077.56410222;4272.69230777;3452.05128039;4271.79487187;4073.07692273;3778.84615288
3807.82051192;4402.69230804;4010.64102516;4629.48718032;5089.61538643;2597.43589397;229.99999153;-0.00000896;3092.82051039;3316.92307498;4039.61538420;4272.43589751;3352.56410069;4269.23076930;4074.87179453;3811.66666577
3814.48717859;4466.02564152;4037.82051241;4633.46153930;5091.53846335;2629.61538121;229.99999153;-0.00000896;3121.28204892;3322.30769037;4011.53846106;4270.25641033;3287.30769030;4271.66666674;4074.74358940;3811.66666577
3843.58974276;4501.92307748;3747.56410153;4665.76923168;5029.61538629;2632.69230429;229.99999153;-0.00000896;3054.87179237;3416.41025468;3742.43589640;4272.43589751;3123.33333097;4272.30769238;4075.12820478;3844.48717866
3878.46153770;4564.87179557;3482.05128046;4726.28205233;4596.41025718;2562.94871441;229.99999153;-0.00000896;2987.17948454;3551.15384470;3484.99999841;4272.17948725;2921.15384338;4273.33333341;4075.76923043;3877.43589668
3911.92307623;4566.66666737;3021.28204871;4761.53846265;4731.02564207;2532.82050921;229.99999153;-0.00000896;2987.94871531;3584.61538323;2987.30768967;4271.28205136;2594.74358627;4274.35897443;4102.94871767;3910.25640957
3942.94871733;4566.79487249;2756.92307380;4765.64102676;4731.15384720;2626.28204788;229.99999153;-0.00000896;2987.82051018;3611.41025509;2763.97435585;4270.51282059;2469.48717574;4301.41025655;4102.69230742;3943.07692246
3974.23076868;4568.71794942;2796.53845848;4795.64102683;5284.35897659;2724.99999681;229.99999153;-0.00000896;2925.89743312;3645.38461414;2697.43589417;4273.97435905;2532.69230408;4301.41025655;4102.69230742;3975.89743535
4005.64102516;4601.28205205;2858.07692016;4799.48718067;5284.74359197;2726.66666347;229.99999153;-0.00000896;2791.28204823;3713.58974248;2856.92307401;4271.41025648;2628.07691968;4302.30769245;4103.58974332;4008.71794824
4039.23076882;4630.12820597;2822.69230471;4796.41025760;5224.61538670;2630.12820173;229.99999153;-0.00000896;2664.23076590;3777.43589647;2760.51281739;4269.10256418;2595.12820166;4302.69230784;4105.25640998;4041.53846113
4072.43589709;4602.56410333;2726.02563783;4760.89743701;5219.48718158;2663.33333000;229.99999153;-0.00000896;2661.53845821;3780.38461442;2691.92307366;4271.02564110;2528.71794511;4303.07692322;4105.76923050;4074.35897402
4104.10256383;4602.94871872;3091.02563860;4699.87179585;5515.25641297;2727.82050963;229.99999153;-0.00000896;2659.35897103;3813.58974269;3120.51281815;4270.25641033;2954.87179217;4305.25641040;4107.05128178;4107.05128178
4135.51282031;4629.35897520;2957.69230499;4666.15384706;5842.30769572;2731.79486860;229.99999153;-0.00000896;2662.82050949;3842.05128122;2924.61538184;4267.17948725;2790.12820207;4304.74358989;4109.74358947;4139.87179467
4140.76923056;4632.94871879;2922.17948440;4662.69230860;5810.38461872;2761.28204816;229.99999153;-0.00000896;2658.97435564;3844.48717866;2926.02563825;4267.69230777;2829.23076625;4332.43589765;4108.58974332;4139.87179467
4169.23076910;4635.12820597;2927.69230492;4664.35897527;5552.94872073;2728.97435578;229.99999153;-0.00000896;2658.46153513;3872.94871719;2922.82051004;4270.00000007;2693.07691981;4306.15384630;4108.84615357;4172.69230756
4171.15384602;4662.94871886;2890.89743305;4665.25641116;5548.33333612;2791.41025336;229.99999153;-0.00000896;2694.23076597;3841.15384532;2926.66666389;4267.30769238;2797.05127900;4306.41025655;4110.25640998;4172.69230756
4168.20512807;4664.48718039;2861.92307401;4667.69230860;5357.30769467;2827.69230471;229.99999153;-0.00000896;2666.41025308;3843.07692225;2895.64102280;4268.20512828;2862.43589452;4332.56410278;4109.23076896;4172.69230756
4139.61538441;4693.97435995;2889.61538177;4664.35897527;5323.58974589;2895.76922792;229.99999153;-0.00000896;2566.66666313;3877.30769155;2925.64102287;4267.17948725;2926.02563825;4333.58974380;4136.41025621;4139.87179467
4142.17948697;4729.23077028;2731.53845835;4663.33333424;5258.20513036;2925.76922799;229.99999153;-0.00000896;2436.28204746;3878.97435821;2759.10256098;4241.28205129;2889.74358690;4333.71794893;4137.69230749;4139.87179467
4174.23076910;4794.10256529;2760.76922765;4665.00000091;5225.12820722;2990.76922813;229.99999153;-0.00000896;2366.15384220;3943.33333271;2791.79486874;4267.05128212;2893.84615100;4335.25641047;4137.82051262;4172.69230756
4207.69230763;4859.23077055;2860.38461247;4665.89743680;5290.64102787;2928.71794594;229.99999153;-0.00000896;2335.64102161;4043.33333292;2894.61538177;4241.53846154;3025.89743333;4336.41025662;4141.66666646;4205.51282045
4239.35897436;4864.35897568;2927.94871517;4661.92307783;5352.30769467;2928.97435620;229.99999153;-0.00000896;2337.56409854;4073.58974325;2988.07692044;4239.61538462;3121.41025405;4336.66666688;4139.35897415;4238.33333334
4269.74358982;4892.69230909;2826.53845855;4628.97435981;5520.51282323;3024.35897179;229.99999153;-0.00000896;2337.94871392;4102.82051255;2826.66666368;4267.30769238;3122.43589508;4338.58974380;4141.41025621;4271.15384623
4302.05128219;4926.15384762;2139.35896992;4597.56410333;5583.33333619;3118.58974123;229.99999153;-0.00000896;2334.35897033;4138.71794851;2137.94871351;4237.69230770;2629.99999660;4336.28205149;4142.05128185;4303.97435912
4336.41025662;4962.69230922;2236.28204705;4566.66666737;5685.89743896;3024.99999743;229.99999153;-0.00000896;2239.74358551;4236.41025641;2268.33332917;4240.12820513;2727.94871476;4338.07692329;4142.82051262;4336.66666688
4370.89743618;4962.43589897;2236.02563679;4566.92307762;5515.00000271;2861.66666375;229.99999153;-0.00000896;2232.69230346;4333.58974380;2239.23076500;4241.02564103;2823.07692009;4338.71794893;4168.58974345;4369.48717977
4402.05128240;4958.58974512;2271.66666250;4568.07692378;5487.94872059;2926.53845876;229.99999153;-0.00000896;2234.48717525;4335.25641047;2266.92307276;4236.79487180;2790.25640720;4339.35897457;4169.35897422;4402.30769266
4434.48717991;4927.43589890;2367.94871399;4566.66666737;5948.33333695;2991.53845890;229.99999153;-0.00000896;2237.94871371;4302.56410271;2334.74358572;4234.74358975;3093.07692065;4339.23076944;4169.48717935;4435.12820555
4466.02564152;4925.38461685;2403.33332945;4533.46153909;5844.74359315;3055.25640776;8276.02564958;-0.00000896;2270.25640609;4335.51282073;2369.61538066;4239.61538462;3057.43589494;4339.61538483;4170.64102551;4467.94871844
4496.92307748;4896.92307832;2367.43589348;4530.00000063;5647.94872094;3120.64102328;135.25640157;-0.00000896;2302.17948308;4335.76923098;2365.12820117;4207.43589737;2987.05127941;4339.48717970;4171.66666653;4500.76923133
4501.41025697;4897.82051421;2465.76922702;4530.12820576;5679.23077229;3058.71794622;229.99999153;-0.00000896;2335.38461136;4371.66666695;2433.84615003;4207.94871788;2922.69230492;4365.38461567;4171.28205115;4500.76923133
4503.33333389;4892.05128344;2563.46153492;4533.71794935;5616.28205420;3025.89743333;135.25640157;-0.00000896;2305.51281642;4431.79487222;2533.46153485;4206.92307686;2993.84615121;4365.12820541;4170.51282038;4500.76923133
4529.35897499;4861.53846286;2597.30768884;4535.12820576;5454.48718206;3088.07692065;-0.00000896;-0.00000896;2305.25640616;4404.74359009;2564.23076569;4204.74358968;3060.25640776;4365.64102592;4172.43589730;4533.58974422
4504.48718005;4828.71794997;2599.10256063;4534.23076986;5584.23077208;3085.38461296;-0.00000896;-0.00000896;2330.38461136;4400.76923112;2563.97435543;4233.97435898;3085.51281808;4366.41025669;4172.94871781;4500.76923133
4500.64102620;4793.07692426;2698.71794546;4530.89743653;5320.76923307;3086.79486937;-0.00000896;-0.00000896;2271.92307276;4402.17948753;2633.20512480;4206.02564096;3384.99999820;4366.41025669;4171.79487166;4500.76923133
4496.92307748;4759.48718060;2724.35897117;4500.38461594;5385.64102808;3093.20512578;-0.00000896;-0.00000896;2206.92307262;4406.02564138;2663.07691975;4204.87179481;3318.58974165;4367.05128233;4173.33333320;4500.76923133
4470.12820562;4727.30769335;2789.99999695;4469.35897485;5285.89743812;3157.82051053;-0.00000896;-0.00000896;2202.94871364;4368.33333362;2697.43589417;4206.92307686;3316.92307498;4367.56410285;4173.58974345;4467.94871844
4469.35897485;4700.12820610;2889.10256126;4464.61538511;5422.30769481;3222.30769016;-0.00000896;-0.00000896;2204.10255980;4300.89743604;2791.92307387;4203.07692301;3418.46153673;4369.10256438;4173.58974345;4467.94871844
4465.00000049;4699.48718046;2861.79486888;4435.38461581;5388.20513064;3286.41025440;-0.00000896;-0.00000896;2174.23076486;4240.00000000;2827.30768932;4203.46153840;3514.87179335;4366.92307720;4173.46153833;4467.82051331
4438.20512863;4730.12820617;2828.33333035;4430.76923119;5288.20513043;3387.56410076;-0.00000896;-0.00000896;2167.69230332;4174.87179474;2731.79486860;4203.33333327;3512.05128053;4371.15384644;4173.71794858;4435.00000042
4438.84615427;4792.56410375;2896.02563818;4406.02564138;5221.41025850;3451.92307526;-0.00000896;-0.00000896;2141.15384171;4142.05128185;2791.41025336;4201.02564096;3352.05128018;4369.87179515;4173.58974345;4435.00000042
4465.76923126;4860.51282184;2955.89743319;4402.82051317;5159.35897631;3486.41025482;-0.00000896;-0.00000896;2168.97435460;4170.25641012;2825.51281753;4201.53846147;3387.17948538;4368.71794900;4174.10256397;4467.82051331
4466.92307741;4923.20512967;3020.51281795;4402.05128240;5055.76923251;3482.69230610;-0.00000896;-0.00000896;2202.05127775;4204.61538455;2894.74358690;4201.15384609;3486.79487020;4368.58974387;4175.51282038;4467.82051331
4467.69230818;4959.61538615;3057.69230519;4400.51282086;4994.35897596;3449.99999834;-0.00000896;-0.00000896;2202.56409826;4234.35897436;2987.17948454;4201.15384609;3679.87179369;4369.87179515;4175.38461525;4467.82051331
4467.82051331;4990.76923237;3184.87179265;4398.20512856;4894.23077062;3448.84615218;-0.00000896;-0.00000896;2201.41025211;4268.07692315;3087.82051039;4201.41025634;3611.53846022;4370.64102592;4175.25641012;4467.82051331
4468.97435946;4994.74359135;3150.76922848;4398.84615420;4924.87179633;3446.41025475;-0.00000896;-0.00000896;2169.99999563;4332.69230790;3058.58974109;4174.48717935;3646.79487055;4370.51282079;4173.71794858;4467.82051331
4496.79487235;4996.53846314;3256.66666459;4372.30769259;4830.76923202;3421.41025468;-0.00000896;-0.00000896;2139.74358530;4368.71794900;3152.82051053;4172.05128192;3746.41025537;4369.61538490;4175.89743576;4500.64102620
4498.07692364;4995.89743750;3249.87179279;4371.92307720;4894.61538601;3416.92307519;-0.00000896;-0.00000896;2139.74358530;4372.56410285;3156.02563874;4174.74358961;3811.41025551;4371.02564131;4201.66666660;4500.64102620
4500.51282107;4991.15384776;3350.12820326;4369.48717977;4890.64102703;3419.23076750;-0.00000896;-0.00000896;2140.64102120;4405.12820548;3183.58974137;4173.07692294;3843.20512738;4371.02564131;4201.28205122;4500.64102620
4500.00000056;4988.97436058;3319.87179293;4368.58974387;4962.69230922;3447.82051116;-0.00000896;-0.00000896;2138.84614940;4405.64102599;3216.92307477;4173.46153833;3905.76923008;4372.94871823;4201.92307686;4500.64102620
4500.25641082;4959.35897589;3355.51281864;4369.10256438;4996.53846314;3448.07692141;-0.00000896;-0.00000896;2136.28204684;4432.82051324;3222.56410041;4174.87179474;3809.48717859;4372.94871823;4201.66666660;4500.64102620
4499.61538518;4931.15384762;3415.89743416;4368.84615413;4826.02564228;3479.87179328;-0.00000896;-0.00000896;2108.46153395;4437.05128247;3288.33333132;4168.46153833;3846.66666584;4371.15384644;4203.58974352;4500.64102620
4498.58974415;4927.05128351;3446.41025475;4365.89743618;4992.56410417;3450.76922911;-0.00000896;-0.00000896;2138.84614940;4436.41025683;3285.25640825;4170.38461525;4077.05128171;4372.30769259;4202.56410250;4500.64102620
4471.15384664;4895.51282191;3579.35897297;4338.84615406;4960.89743743;3448.33333167;-0.00000896;-0.00000896;2167.30768793;4434.74359016;3419.61538288;4170.89743576;4403.97435933;4371.41025669;4176.15384602;4467.82051331
4467.05128254;4863.97436030;3676.79487062;4335.89743611;4993.97436058;3450.51281885;-0.00000896;-0.00000896;2168.07691870;4431.92307734;3515.89743437;4143.46153826;4501.66666723;4371.66666695;4201.92307686;4467.82051331
4438.33333375;4832.69230895;3744.99999896;4332.56410278;4958.71795025;3481.15384456;-0.00000896;-0.00000896;2141.28204684;4405.00000035;3547.94871649;4142.17948697;4530.51282114;4372.30769259;4202.30769224;4435.00000042
4433.20512863;4828.07692433;3747.69230665;4306.66666681;4863.84615517;3485.64102405;229.99999153;-0.00000896;2137.69230325;4398.97435933;3583.07692169;4171.15384602;4533.71794935;4399.48717984;4204.23076917;4434.87179529
4431.92307734;4798.84615503;3810.76922987;4302.56410271;4862.94871927;3515.25640873;229.99999153;-0.00000896;2135.12820068;4401.53846189;3616.53846022;4168.20512807;3845.38461455;4371.41025669;4202.56410250;4434.87179529
4403.46153881;4795.89743708;3814.99999910;4301.15384630;4827.94871920;3517.43589591;229.99999153;-0.00000896;2107.43589292;4372.94871823;3677.56410139;4142.43589723;4040.38461497;4397.94871830;4203.97435891;4402.05128240
4399.61538497;4793.07692426;3880.38461462;4273.07692315;4959.10256564;3516.79487027;229.99999153;-0.00000896;2106.66666215;4371.41025669;3743.97435794;4140.64102544;4071.02564068;4398.07692343;4202.82051275;4402.05128240
4398.58974394;4766.79487291;3874.35897360;4271.53846161;4796.92307811;3518.07692155;8278.58975214;-0.00000896;2106.02563651;4371.41025669;3713.20512710;4168.58974345;4234.61538462;4398.20512856;4202.69230763;4402.05128240
4370.25641054;4764.48718060;3942.30769169;4270.00000007;4858.07692440;3547.56410111;68.20511938;-0.00000896;2103.46153395;4398.33333368;3778.97435801;4168.84615371;4335.64102585;4398.20512856;4202.94871788;4369.23076951
4367.30769259;4763.33333445;4004.35897388;4269.23076930;4827.94871920;3547.30769085;229.99999153;-0.00000896;2074.48717490;4366.66666695;3841.02564020;4140.51282031;4463.71794921;4372.82051310;4203.07692301;4369.23076951
4339.74358996;4762.94871906;4069.74358940;4239.87179488;4758.97436009;3582.43589605;68.20511938;-0.00000896;2042.82050817;4368.84615413;3842.82051199;4168.20512807;4628.07692391;4398.20512856;4203.07692301;4336.41025662
4337.05128226;4764.74359086;4071.66666632;4236.02564103;4929.48718095;3583.20512682;229.99999153;-0.00000896;2006.53845682;4367.56410285;3908.33333264;4141.66666646;4566.53846224;4373.07692336;4203.20512814;4336.41025662
4335.64102585;4792.56410375;4105.76923050;4204.48717942;4733.97436002;3610.51281920;68.20511938;-0.00000896;1969.23076444;4398.84615420;3907.69230700;4141.28205108;4467.82051331;4398.84615420;4203.58974352;4336.41025662
4334.10256431;4795.12820631;4107.17948691;4170.89743576;4990.51282211;3613.46153715;229.99999153;-0.00000896;1942.05127719;4398.84615420;3972.30769176;4141.15384595;4530.00000063;4398.20512856;4204.61538455;4336.28205149
4335.76923098;4796.66666785;4107.82051255;4138.07692287;4897.05128344;3615.64102432;68.20511938;-0.00000896;1941.28204642;4372.17948746;3944.35897374;4139.99999980;4467.30769280;4398.20512856;4205.25641019;4336.28205149
4336.15384637;4799.74359093;3809.10256320;4103.71794844;5087.56410437;3615.76922945;229.99999153;-0.00000896;1972.17948239;4369.23076951;3644.74358850;4140.38461518;4306.66666681;4398.46153881;4203.84615378;4336.28205149
4338.84615406;4825.12820638;3813.33333243;4071.02564068;5187.43589945;3585.51281913;68.20511938;-0.00000896;2003.97435425;4398.07692343;3616.66666535;4139.10256390;4368.20512849;4398.07692343;4205.25641019;4336.28205149
4365.64102592;4826.66666792;3712.43589633;4039.74358933;4863.71795004;3615.25640894;229.99999153;-0.00000896;2035.12820048;4399.74359009;3581.15384477;4141.66666646;4562.17948788;4372.94871823;4203.84615378;4368.97435926
4369.10256438;4829.74359100;3846.15384532;4011.02564054;5024.61538629;3583.71794733;68.20511938;-0.00000896;2039.23076458;4404.10256445;3680.12820395;4143.46153826;4992.05128365;4399.35897471;4204.48717942;4368.97435926
4371.02564131;4831.02564228;3776.92307595;4007.30769183;4959.23077076;3583.97435759;229.99999153;-0.00000896;2068.07691849;4405.64102599;3549.48717803;4139.99999980;5090.89743771;4398.46153881;4204.87179481;4368.97435926
4400.25641061;4858.46153979;3810.64102474;3979.10256355;5023.07692475;3579.48717810;68.20511938;-0.00000896;2069.35896978;4433.07692350;3644.99999875;4142.94871774;4996.28205288;4399.74359009;4202.43589737;4401.79487215
4404.61538497;4859.87179620;3841.15384532;3975.38461483;4992.69230929;3548.97435752;229.99999153;-0.00000896;2072.43589285;4436.92307734;3650.64102439;4140.25641005;4696.41025739;4398.33333368;4204.99999993;4401.79487215
4434.48717991;4861.53846286;3939.87179425;3972.05128150;4861.66666799;3550.38461393;68.20511938;-0.00000896;2042.05127740;4434.23076965;3748.84615281;4139.99999980;4531.66666730;4371.92307720;4204.74358968;4434.61538504
4438.46153888;4864.35897568;4072.17948684;3941.79487117;4957.30769384;3517.94871642;229.99999153;-0.00000896;2069.48717490;4470.38461587;3845.76922994;4141.79487159;3649.74358850;4398.33333368;4204.61538455;4434.61538504
4465.12820562;4864.48718081;4267.56410264;3907.69230700;4858.46153979;3482.17948559;68.20511938;-0.00000896;2073.84614926;4496.53846210;3972.69230714;4137.56410236;3746.28205024;4399.74359009;4204.87179481;4467.30769280
4465.64102613;4862.94871927;4307.30769245;3874.48717873;5028.33333500;3420.89743416;229.99999153;-0.00000896;2102.82050831;4496.92307748;4074.48717914;4141.79487159;3874.48717873;4371.66666695;4203.84615378;4467.30769280
4463.84615434;4859.87179620;4366.53846182;3813.07692218;4988.71795032;3446.66666500;68.20511938;-0.00000896;2105.38461087;4497.05128261;4043.84615343;4142.94871774;3906.15384546;4398.46153881;4204.48717942;4467.30769280
4434.23076965;4857.94871927;4563.46153916;3778.33333236;5023.84615552;3421.41025468;229.99999153;-0.00000896;2108.20512369;4471.15384664;4201.02564096;4140.25641005;4137.43589723;4373.07692336;4204.48717942;4434.35897478
4403.07692343;4832.30769356;4733.97436002;3713.58974248;4662.05128296;3413.84615211;68.20511938;-0.00000896;2106.41025190;4464.87179536;4334.48717970;4169.35897422;4405.00000035;4373.07692336;4204.99999993;4401.53846189
4372.30769259;4832.17948843;4794.35897554;3650.76922952;4798.84615503;3380.51281871;229.99999153;-0.00000896;2133.46153402;4468.07692357;4402.05128240;4141.41025621;4632.05128289;4370.64102592;4204.99999993;4368.58974387
4369.48717977;4832.17948843;4797.43589862;3644.48717824;4861.15384748;3320.89743396;68.20511938;-0.00000896;2135.12820068;4497.30769287;4399.10256445;4172.30769217;4668.07692398;4371.66666695;4204.87179481;4368.58974387
4366.15384644;4832.56410382;4728.07692412;3618.07692176;4663.97435988;3221.41025426;229.99999153;-0.00000896;2139.10255966;4530.12820576;4304.74358989;4168.84615371;5055.12820687;4372.43589772;4204.23076917;4368.58974387
4365.12820541;4827.56410382;4928.58974505;3614.35897304;4861.79487312;3151.02563874;68.20511938;-0.00000896;2202.69230339;4562.30769301;4569.35897506;4173.07692294;5193.58974561;4372.43589772;4205.12820506;4368.58974387
4365.51282079;4793.97436016;4994.87179647;3611.53846022;4695.89743687;3120.12820277;229.99999153;-0.00000896;2268.84614968;4503.07692364;4630.76923161;4170.76923063;5190.89743792;4371.66666695;4206.15384609;4368.58974387
4336.92307714;4763.97436009;5186.79487381;3584.23076784;4730.51282156;3121.53845918;68.20511938;-0.00000896;2334.87179085;4504.23076979;4765.76923188;4171.02564089;5617.69231061;4370.64102592;4205.51282045;4335.76923098
4336.28205149;4759.87179599;5024.74359142;3584.10256272;4693.33333431;3086.79486937;229.99999153;-0.00000896;2400.89743201;4533.97435960;4569.74359044;4175.51282038;5618.58974651;4370.51282079;4207.05128199;4335.76923098
4336.15384637;4732.69230874;4926.02564249;3612.43589612;4796.92307811;3025.38461282;8242.17949566;-0.00000896;2465.51281676;4536.15384678;4595.38461615;4172.17948704;5190.12820715;4368.58974387;4206.41025634;4335.76923098
4335.51282073;4729.10256515;5087.17948899;3615.12820381;4829.87179613;2960.89743319;8372.56411132;-0.00000896;2529.10256049;4563.33333403;4700.76923175;4202.30769224;5191.02564304;4367.94871823;4206.79487173;4335.76923098
4334.48717970;4699.61538559;5026.53846321;3645.51281927;4697.43589841;2926.15384338;8272.69231624;-0.00000896;2567.69230415;4566.53846224;4660.76923168;4202.69230763;5223.97436106;4367.43589772;4233.97435898;4335.76923098
4333.58974380;4695.00000098;4989.87179647;3650.51281927;4799.74359093;2925.12820235;229.99999153;-0.00000896;2596.53845807;4567.69230839;4632.94871879;4175.38461525;5123.97436085;4366.28205156;4207.56410250;4335.76923098
4307.43589758;4666.41025732;4697.05128303;3681.53846036;4864.35897568;2890.12820228;229.99999153;-0.00000896;2598.20512473;4596.41025718;4371.28205156;4202.05128199;4830.76923202;4368.46153874;4207.56410250;4303.07692322
4306.92307707;4660.64102655;4693.58974457;3711.41025530;4792.30769349;2828.58974061;229.99999153;-0.00000896;2659.61538128;4629.48718032;4438.58974401;4202.05128199;5284.35897659;4368.07692336;4207.94871788;4303.07692322
4304.74358989;4631.02564186;4694.61538559;3714.23076812;4894.61538601;2797.05127900;229.99999153;-0.00000896;2695.25640699;4630.51282135;4470.89743639;4201.28205122;5455.51282309;4366.79487208;4234.10256411;4303.07692322
4302.56410271;4598.97435974;4956.53846307;3742.17948614;4791.92307811;2797.05127900;-0.00000896;-0.00000896;2698.58974033;4628.84615468;4728.46153951;4202.94871788;5743.84615705;4365.64102592;4208.46153840;4303.07692322
4299.48717963;4595.89743667;4665.64102655;3744.48717845;4860.25641158;2791.79486874;-0.00000896;-0.00000896;2693.71794546;4667.17948809;4436.41025683;4201.79487173;5486.41025905;4365.12820541;4208.71794865;4303.07692322
4272.05128212;4567.05128275;4534.61538524;3743.07692204;4923.07692454;2726.66666347;-0.00000896;-0.00000896;2727.56409937;4695.00000098;4370.76923105;4203.46153840;5417.30769481;4366.79487208;4208.97435891;4270.25641033
4268.58974366;4535.76923140;4437.43589786;3715.64102453;4832.30769356;2698.46153520;-0.00000896;-0.00000896;2790.76922772;4699.10256508;4306.02564117;4207.69230763;5287.17948941;4339.48717970;4208.46153840;4270.25641033
4239.23076923;4503.97435953;4568.71794942;3711.15384505;4860.12820645;2695.76922751;-0.00000896;-0.00000896;2823.71794573;4698.97435995;4401.92307727;4205.64102558;5390.25641269;4338.20512842;4208.97435891;4237.43589744
4209.10256404;4499.87179543;4531.53846217;3683.84615267;4994.10256570;2694.48717623;-0.00000896;-0.00000896;2826.66666368;4730.00000105;4399.48717984;4205.25641019;5354.48718185;4338.84615406;4234.74358975;4204.61538455
4205.64102558;4470.64102613;4434.35897478;3681.41025523;4860.51282184;2660.64102231;-0.00000896;-0.00000896;2855.64102273;4761.15384727;4300.76923091;4205.76923070;5291.15384838;4337.56410278;4233.97435898;4204.61538455
4201.66666660;4467.05128254;4469.35897485;3676.41025523;5089.61538643;2658.46153513;-0.00000896;-0.00000896;2860.51281760;4733.20512925;4336.02564124;4207.30769224;5285.76923300;4337.94871816;4235.51282052;4204.61538455
4175.12820499;4463.58974408;4404.10256445;3649.48717824;4963.71795025;2593.20512473;-0.00000896;-0.00000896;2863.46153555;4794.87179606;4335.25641047;4234.23076923;5219.35897645;4340.12820534;4236.28205129;4171.66666653
4174.87179474;4433.46153888;5290.64102787;3647.17948593;5092.17948899;2560.64102210;-0.00000896;-0.00000896;2922.05127928;4795.25641144;5159.74359169;4207.56410250;5880.25641373;4336.66666688;4236.79487180;4171.66666653
4173.46153833;4431.41025683;4894.87179627;3646.15384491;5026.79487347;2530.76922716;-0.00000896;-0.00000896;2987.05127941;4766.79487291;4766.66666778;4207.17948711;5582.69231055;4337.69230790;4236.66666667;4171.66666653
4168.84615371;4401.92307727;4859.74359107;3644.87179362;5055.38461713;2527.69230408;-0.00000896;-0.00000896;3019.61538205;4763.33333445;4728.20512925;4206.92307686;5486.92307957;4337.05128226;4236.66666667;4171.66666653
4140.12820492;4400.51282086;4501.02564159;3643.33333209;5023.97436065;2469.48717574;-0.00000896;-0.00000896;3026.28204871;4766.66666778;4400.51282086;4206.41025634;5220.38461747;4334.74358996;4237.69230770;4138.84615364
4135.64102544;4399.74359009;4863.33333466;3615.76922945;5120.89743778;2435.51281669;-0.00000896;-0.00000896;3091.53845911;4794.35897554;4727.56410361;4234.87179488;5389.10256654;4333.97435919;4236.92307693;4138.84615364
4105.51282024;4372.56410285;4700.64102662;3614.48717817;5057.56410431;2400.25640637;-0.00000896;-0.00000896;3158.20512592;4825.00000125;4600.00000077;4235.76923077;5153.71795067;4333.58974380;4237.56410257;4106.02564075
4073.33333299;4372.05128233;4501.53846210;3613.71794740;5092.94871976;2397.05127816;-0.00000896;-0.00000896;3217.82051067;4798.58974477;4404.48717984;4237.69230770;5089.10256591;4332.69230790;4237.69230770;4073.20512786
4040.76923036;4371.41025669;4367.30769259;3612.17948586;5289.74359197;2365.64102168;-0.00000896;-0.00000896;3223.71794657;4831.92307818;4207.82051275;4234.61538462;5087.43589925;4305.25641040;4238.58974359;4040.38461497
4011.92307644;4370.76923105;4595.25641102;3614.48717817;5382.69231013;2334.74358572;-0.00000896;-0.00000896;3314.87179293;4890.64102703;4369.61538490;4235.64102564;5286.53846377;4305.00000014;4236.41025641;4007.56410208
4006.02564054;4370.51282079;4728.33333438;3614.99999868;5122.69230957;2336.15384213;-0.00000896;-0.00000896;3385.89743409;4864.48718081;4531.53846217;4236.92307693;5355.76923314;4304.74358989;4239.23076923;4007.56410208
3972.05128150;4371.66666695;4759.87179599;3616.02563971;5419.74359225;2332.94871392;-0.00000896;-0.00000896;3448.33333167;4896.92307832;4532.56410319;4237.82051282;5317.43589973;4303.97435912;4239.23076923;3974.74358919
3939.87179425;4371.02564131;4634.61538545;3614.10256279;5155.76923272;2331.53845751;-0.00000896;-0.00000896;3482.94871635;4961.66666820;4435.89743632;4237.05128206;5253.84615600;4303.33333348;4240.51282052;3941.92307630
3906.28205059;4369.23076951;4534.23076986;3583.58974220;5257.30769447;2298.58973949;-0.00000896;-0.00000896;3515.64102412;5027.05128372;4273.33333341;4237.43589744;5122.82051470;4274.61538469;4240.51282052;3909.10256341
3879.10256334;4339.35897457;4628.58974443;3551.79487034;5423.33333584;2169.10255973;-0.00000896;-0.00000896;3519.10256258;5126.15384803;4403.97435933;4238.58974359;5218.46154055;4272.43589751;4240.89743590;3876.28205052
3874.61538385;4303.46153860;4366.28205156;3547.05128060;5258.33333549;2039.23076458;-0.00000896;-0.00000896;3611.66666535;5193.46154048;4269.10256418;4238.46153847;4923.58974505;4273.20512828;4241.79487180;3876.28205052
3846.28205045;4239.61538462;4340.38461560;3578.71794733;5256.02564318;2007.56409784;229.99999153;-0.00000896;3744.99999896;5160.25641221;4207.69230763;4238.84615385;5022.69230936;4272.56410264;4241.92307693;3843.46153763
3841.28205045;4175.64102551;1547.05127636;3617.17948586;4829.35897561;2041.79486714;8276.53847009;-0.00000896;3807.56410166;5126.79487367;1578.58973797;4241.92307693;1681.02563561;4269.23076930;4268.20512828;3843.46153763
3811.79487090;4139.35897415;1288.07691683;3680.51281934;5191.92307894;2137.05127761;35.12819624;-0.00000896;3810.12820423;5062.43589918;1247.17948086;4240.51282052;1840.89743083;4269.48717956;4241.28205129;3810.76922987
3782.17948621;4109.87179460;1151.79486527;3742.05128101;5153.46154041;2206.15384185;99.48717074;-0.00000896;3841.02564020;5058.20512995;1020.89742909;4241.53846154;1581.79486617;4267.43589751;4267.05128212;3777.94871698
3778.46153749;4110.12820485;1418.58973762;3777.05128108;5582.05128490;2266.92307276;229.99999153;-0.00000896;3878.97435821;5029.23077090;1320.89742972;4238.97435898;1911.41025148;4241.92307693;4267.43589751;3777.94871698
3748.33333229;4108.71794844;1447.69230179;3777.69230672;5094.87179668;2271.79486763;229.99999153;-0.00000896;3942.82051220;4961.92307846;1349.87178876;4268.20512828;1909.74358481;4240.64102564;4267.17948725;3745.12820409
3715.89743479;4135.51282031;1446.79486589;3775.38461442;5715.51282364;2301.02563693;229.99999153;-0.00000896;3971.79487124;4956.92307846;1418.07691710;4267.94871802;1940.76922591;4239.74358975;4239.61538462;3712.30769120
3712.17948607;4140.64102544;1675.12819971;3775.51281954;5320.25641255;2331.66666264;229.99999153;-0.00000896;3975.89743535;4958.97436051;1514.23076347;4241.79487180;2134.61538017;4238.58974359;4267.30769238;3712.30769120
3709.87179376;4172.17948704;1678.07691766;3778.07692211;5748.58974679;2299.99999590;229.99999153;-0.00000896;4038.84615343;4928.84615531;1644.74358426;4268.07692315;2104.99999549;4237.30769231;4266.92307700;3712.30769120
3709.99999889;4174.99999986;1940.64102078;3779.10256313;5382.94872038;2298.33332924;229.99999153;-0.00000896;4104.99999973;4927.94871941;1837.94871288;4238.71794872;2270.89743173;4236.41025641;4267.43589751;3712.30769120
3682.69230651;4202.56410250;1843.20512314;3778.46153749;5783.20513147;2300.64102155;229.99999153;-0.00000896;4142.56410236;4958.33333487;1779.35896915;4267.05128212;2265.89743173;4234.35897436;4267.69230777;3679.48717831
3678.46153728;4207.30769224;2074.35896978;3775.89743493;5286.79487402;2266.53845737;229.99999153;-0.00000896;4240.64102564;4958.33333487;2005.25640554;4270.89743597;2336.28204726;4208.33333327;4267.69230777;3679.48717831
3677.17948600;4207.56410250;2304.99999590;3775.76922980;5451.15384873;2239.61538038;229.99999153;-0.00000896;4306.92307707;4958.97436051;2265.89743173;4269.35897443;3022.56410000;4207.82051275;4268.20512828;3679.48717831
3650.76922952;4235.00000000;2302.43589334;3776.66666570;5188.58974561;2236.41025218;229.99999153;-0.00000896;4368.97435926;4989.74359135;2199.10255980;4267.43589751;3123.58974123;4204.99999993;4269.87179495;3646.66666542
3648.71794747;4234.74358975;2429.23076541;3780.89743493;5383.07692551;2204.23076493;229.99999153;-0.00000896;4434.23076965;4989.48718109;2334.23076520;4267.94871802;3184.23076701;4203.33333327;4267.69230777;3646.66666542
3643.71794747;4235.00000000;2303.33332924;3807.94871705;5255.76923293;2233.71794448;229.99999153;-0.00000896;4471.02564152;4991.53846314;2204.10255980;4268.58974366;3026.41025384;4202.94871788;4267.30769238;3646.79487055
3613.58974227;4235.89743590;2402.82050893;3780.64102467;5550.64102842;2239.61538038;229.99999153;-0.00000896;4500.25641082;5023.58974526;2400.38461150;4269.35897443;3055.51281802;4202.30769224;4268.07692315;3613.84615253
3611.02563971;4235.76923077;2533.20512460;3778.33333236;5416.66666917;2204.61538031;229.99999153;-0.00000896;4536.66666730;5025.12820680;2432.82050900;4266.79487187;3151.66666438;4174.87179474;4267.94871802;3613.84615253
3581.92307554;4234.23076923;2859.48717657;3777.82051185;5383.71795115;2140.38461094;229.99999153;-0.00000896;4634.35897520;5022.56410424;2793.20512515;4241.79487180;3513.46153694;4171.02564089;4268.07692315;3581.02563964
3577.82051143;4203.97435891;2796.66666361;3777.17948621;5550.00000278;2136.28204684;229.99999153;-0.00000896;4699.35897534;4996.15384776;2664.74358641;4241.15384616;3513.07692155;4174.23076910;4267.56410264;3581.02563964
3547.94871649;4201.66666660;3682.17948600;3778.58974262;5322.17948948;2167.82050845;229.99999153;-0.00000896;4732.82051387;4995.25641186;3548.07692162;4268.46153853;3979.10256355;4170.76923063;4267.82051289;3548.20512675
3544.74358829;4175.12820499;3354.48717761;3780.38461442;5291.15384838;2167.30768793;229.99999153;-0.00000896;4765.76923188;4996.41025801;3254.23076715;4241.79487180;2924.10256133;4170.76923063;4267.05128212;3548.20512675
3519.35897283;4172.82051269;3418.20512647;3782.30769134;5287.94872018;2139.99999556;229.99999153;-0.00000896;4830.25641151;4993.84615545;3287.69230568;4267.69230777;2859.74358683;4142.56410236;4266.66666674;3515.38461386
3518.84615232;4170.12820499;3511.92307540;3814.10256320;5026.66666834;2171.02563665;229.99999153;-0.00000896;4894.74359114;4962.17948871;3381.79486999;4266.79487187;2527.17948357;4141.28205108;4241.41025641;3515.51281899
3519.61538309;4142.56410236;3714.10256299;3843.33333250;5357.05128442;2170.12820075;229.99999153;-0.00000896;4926.02564249;4958.58974512;3584.61538323;4268.46153853;2696.53845828;4140.89743569;4240.25641026;3515.51281899
3546.92307547;4141.02564082;3846.92307609;3874.10256334;5121.66666855;2170.51281614;229.99999153;-0.00000896;4960.89743743;4928.20512967;3781.28205031;4268.07692315;2724.99999681;4139.61538441;4240.89743590;3548.33333188
3548.71794726;4138.97435877;3844.61538379;3879.99999924;5258.46154062;2201.79486749;229.99999153;-0.00000896;4994.10256570;4896.15384755;3749.23076819;4240.38461539;2468.71794497;4136.66666646;4240.51282052;3548.33333188
3549.61538316;4110.25640998;3808.33333243;3906.41025572;5158.71795067;2234.99999577;229.99999153;-0.00000896;5027.05128372;4895.89743729;3742.56410153;4241.28205129;3124.99999764;4135.38461518;4239.87179488;3548.33333188
3548.97435752;4135.64102544;3645.38461414;3908.46153777;5159.87179682;2236.53845730;229.99999153;-0.00000896;5061.92307866;4858.46153979;3614.61538330;4267.05128212;2500.89743222;4109.23076896;4237.56410257;3548.33333188
3547.43589598;4107.30769203;3841.28205045;3907.17948649;5253.97436113;2239.87179064;229.99999153;-0.00000896;5123.07692496;4799.61538580;3777.82051185;4241.92307693;2895.89743305;4106.92307665;4239.23076923;3548.33333188
3544.99999854;4105.89743562;3713.84615274;3906.92307623;5390.38461782;2271.66666250;229.99999153;-0.00000896;5156.92307887;4791.79487298;3679.10256293;4267.17948725;2890.76922792;4109.10256383;4238.07692308;3548.33333188
3517.94871642;4107.30769203;3911.79487110;3907.56410187;5318.33333563;2331.41025238;229.99999153;-0.00000896;5159.74359169;4792.05128324;3875.64102488;4267.17948725;4169.74358961;4105.51282024;4237.56410257;3515.51281899
3517.82051130;4109.99999973;3971.41025586;3907.94871726;5253.20513036;2333.97435495;229.99999153;-0.00000896;5190.12820715;4733.33333438;3972.30769176;4240.51282052;4169.48717935;4104.87179460;4236.53846154;3515.51281899
3544.99999854;4136.28205108;3978.46153791;3910.12820444;4896.41025780;2304.23076513;229.99999153;-0.00000896;5226.15384824;4698.84615482;3906.92307623;4239.74358975;4270.00000007;4103.46153819;4236.28205129;3548.33333188
3546.53846008;4136.92307672;5094.48718130;3940.89743528;5291.92307915;2301.02563693;229.99999153;-0.00000896;5318.58974589;4693.71794969;4994.10256570;4241.28205129;5186.79487381;4076.53846119;4235.38461539;3548.46153701
3548.58974213;4137.94871774;5449.23077181;3946.02564040;4926.02564249;2330.51281649;229.99999153;-0.00000896;5357.17948955;4663.58974450;5388.71795115;4238.46153847;5318.33333563;4102.94871767;4209.10256404;3548.46153701
3548.20512675;4139.10256390;5651.53846453;3976.53846099;4962.69230922;2338.33332931;229.99999153;-0.00000896;5390.25641269;4630.51282135;5645.89743889;4240.76923077;5416.66666917;4074.87179453;4209.10256404;3548.46153701
3546.92307547;4139.61538441;5847.17949059;3978.97435842;4895.89743729;2370.38461143;35.64101675;-0.00000896;5422.56410507;4595.76923154;5815.38461872;4241.02564103;5550.00000278;4075.89743555;4208.71794865;3548.46153701
3546.41025495;4141.79487159;6041.41026024;4006.92307644;5124.23077111;2397.82050893;8342.17949587;-0.00000896;5481.15384880;4567.30769301;5945.89743951;4239.87179488;5546.79487458;4075.12820478;4207.82051275;3548.46153701
3545.51281906;4168.46153833;6336.66667112;4011.28205080;4830.64102690;2402.94871406;229.99999153;-0.00000896;5483.07692572;4532.05128268;6243.84615809;4267.56410264;5713.71795185;4073.71794837;4207.05128199;3548.46153701
3546.02563957;4170.89743576;6241.66667091;4038.97435856;4962.43589897;2403.71794483;8342.17949587;-0.00000896;5486.28205393;4503.71794928;6140.12820916;4241.53846154;5551.53846432;4073.46153812;4205.89743583;3548.46153701
3547.69230624;4173.46153833;6041.53846536;4042.94871754;4698.97435995;2396.79486791;-0.00000896;-0.00000896;5516.66666938;4499.61538518;5941.66667028;4240.89743590;5554.35897714;4072.30769196;4205.76923070;3548.46153701
3548.58974213;4174.35897422;6172.69231180;4073.46153812;4530.76923140;2369.10256015;-0.00000896;-0.00000896;5517.56410528;4466.15384664;5981.15384984;4266.92307700;5549.87179766;4071.15384581;4204.35897429;3548.58974213
3550.76922931;4175.64102551;6137.82051685;4077.69230735;4370.89743618;2368.46153450;-0.00000896;-0.00000896;5520.00000271;4432.30769273;6009.23077299;4240.64102564;5384.48718192;4071.79487145;4203.84615378;3548.58974213
3551.79487034;4176.15384602;6009.35897812;4107.30769203;4826.02564228;2370.64102168;-0.00000896;-0.00000896;5518.58974630;4399.10256445;5881.79487527;4240.51282052;5154.61538656;4071.53846119;4202.94871788;3548.58974213
3579.10256272;4202.43589737;5521.92307964;4138.20512800;4761.79487291;2398.20512432;-0.00000896;-0.00000896;5518.07692579;4369.87179515;5387.82051526;4237.05128206;4727.69230874;4044.74358933;4202.17948711;3581.41025502
3582.05128067;4202.94871788;5585.51282337;4140.12820492;4664.74359065;2429.35897054;-0.00000896;-0.00000896;5516.79487451;4337.43589765;5452.69231027;4236.66666667;4759.61538573;4070.38461504;4201.53846147;3581.41025502
3582.82051143;4202.30769224;5847.17949059;4141.92307672;4926.92307839;2401.15384227;-0.00000896;-0.00000896;5521.02564374;4303.71794886;5679.48718255;4240.76923077;4995.38461699;4044.10256369;4175.51282038;3581.41025502
3582.43589605;4201.92307686;5877.30769579;4143.07692287;4664.61538552;2397.56409868;-0.00000896;-0.00000896;5548.33333612;4272.94871802;5747.05128525;4238.84615385;5058.84615559;4043.46153805;4201.15384609;3581.41025502
3581.41025502;4201.28205122;5910.64102919;4169.87179474;4662.17948809;2397.05127816;-0.00000896;-0.00000896;5551.02564381;4269.87179495;5745.76923397;4237.94871795;5021.79487347;4042.82051241;4173.84615371;3581.41025502
3581.02563964;4174.23076910;5747.05128525;4171.15384602;4795.64102683;2396.02563714;-0.00000896;-0.00000896;5550.89743868;4208.46153840;5614.61538754;4236.41025641;4765.12820624;4040.89743548;4173.58974345;3581.41025502
3580.12820374;4173.07692294;5943.33333695;4171.92307679;4728.07692412;2399.87179098;-0.00000896;-0.00000896;5548.71795150;4203.20512814;5784.48718276;4237.94871795;4793.33333452;4041.02564061;4172.30769217;3581.41025502
3582.05128067;4171.92307679;6009.10256786;4173.84615371;4662.05128296;2399.23076534;-0.00000896;-0.00000896;5547.69231048;4172.30769217;5882.94872143;4239.10256411;3118.97435662;4042.30769189;4171.66666653;3581.41025502
3581.79487041;4171.92307679;6139.23077326;4175.25641012;4599.48718026;2428.84615003;-0.00000896;-0.00000896;5546.66666945;4142.43589723;5974.74359343;4237.56410257;2924.87179210;4043.20512779;4170.64102551;3581.41025502
3611.15384484;4174.23076910;6078.97436287;4201.53846147;4668.20512911;2430.64102182;-0.00000896;-0.00000896;5520.76923348;4077.82051248;6008.07692683;4237.82051282;2955.89743319;4041.28205087;4169.10256397;3614.35897304
3612.43589612;4175.38461525;6010.89743965;4205.38461532;4596.66666743;2403.97435509;-0.00000896;-0.00000896;5547.17948996;4075.76923043;5947.82051644;4238.07692308;2991.92307429;4041.66666625;4169.10256397;3614.35897304
3614.87179356;4201.02564096;6011.79487555;4207.43589737;4497.43589800;2435.64102182;-0.00000896;-0.00000896;5516.53846425;4039.74358933;5880.64102912;4234.61538462;3121.02563867;4043.20512779;4168.20512807;3614.35897304
3644.10256286;4202.94871788;5975.00000369;4234.48717949;4698.07692405;2434.48717567;-0.00000896;-0.00000896;5515.89743861;4011.92307644;5842.69231110;4235.38461539;3846.41025558;4042.94871754;4142.43589723;3647.17948593
3648.07692183;4204.48717942;5685.89743896;4238.58974359;4569.10256480;2431.92307311;-0.00000896;-0.00000896;5518.46154118;3978.58974304;5553.97436176;4238.71794872;4991.28205288;4042.17948677;4141.79487159;3647.17948593
3677.30769113;4204.35897429;5815.12820847;4267.94871802;4731.15384720;2429.48717567;-0.00000896;-0.00000896;5519.48718220;3944.99999938;5645.51282350;4239.10256411;5155.25641221;4043.33333292;4141.92307672;3679.99999882
3681.79487062;4203.46153840;5813.46154180;4272.69230777;4600.64102641;2431.41025259;-0.00000896;-0.00000896;5521.53846425;3946.28205066;5678.97436204;4237.43589744;5155.12820708;4043.71794830;4140.64102544;3679.99999882
3712.17948607;4202.30769224;5943.71795234;4303.58974373;4535.51282114;2403.71794483;-0.00000896;-0.00000896;5521.92307964;3910.64102495;5744.48718269;4240.00000000;5156.02564298;4042.43589702;4140.12820492;3712.82051171
3716.66666556;4203.46153840;5580.89743875;4334.10256431;4633.33333417;2429.35897054;-0.00000896;-0.00000896;5521.41025912;3879.61538385;5322.05128435;4239.23076923;4764.61538573;4043.07692266;4139.10256390;3712.94871684
3744.35897332;4202.69230763;5453.58974616;4365.12820541;4498.84615441;2397.69230380;-0.00000896;-0.00000896;5547.43590022;3873.97435821;5193.46154048;4238.58974359;4727.17948823;4043.46153805;4137.69230749;3745.76922973
3747.05128101;4201.28205122;5356.15384852;4370.38461567;4502.56410312;2399.23076534;-0.00000896;-0.00000896;5520.12820784;3845.12820430;5089.74359155;4239.23076923;4500.00000056;4042.30769189;4137.56410236;3745.76922973
3747.43589640;4203.33333327;5385.89743833;4400.00000035;4566.28205198;2401.15384227;229.99999153;-0.00000896;5514.61538733;3809.87179397;5093.84615566;4239.74358975;4463.97435946;4041.92307651;4138.58974339;3745.76922973
3748.84615281;4203.33333327;5352.30769467;4430.76923119;4695.38461636;2399.48717560;229.99999153;-0.00000896;5484.48718213;3812.82051192;5024.35897603;4240.00000000;4369.48717977;4044.74358933;4136.53846133;3745.76922973
3748.84615281;4203.84615378;5322.82051512;4434.10256452;4832.30769356;2399.48717560;229.99999153;-0.00000896;5452.17948975;3780.89743493;4963.46153999;4239.35897436;4241.28205129;4042.82051241;4136.92307672;3745.76922973
3747.43589640;4203.33333327;5352.43589980;4436.41025683;4762.30769342;2368.33332938;229.99999153;-0.00000896;5451.28205386;3779.35897339;4992.69230929;4238.71794872;4010.12820465;4044.23076882;4110.64102537;3745.76922973
3744.74358871;4201.66666660;5220.89743799;4465.12820562;4726.66666771;2366.66666271;132.82050414;-0.00000896;5419.74359225;3775.76922980;4792.56410375;4241.28205129;4004.87179439;4042.82051241;4109.87179460;3745.89743486
3715.76922966;4174.48717935;5256.28205344;4467.94871844;4628.58974443;2335.25640623;70.89742708;-0.00000896;5385.25641269;3746.41025537;4830.00000125;4238.71794872;4008.97435849;4043.71794830;4109.87179460;3713.07692197
3713.84615274;4170.89743576;5258.33333549;4468.84615434;4897.17948857;2330.25640623;229.99999153;-0.00000896;5353.33333570;3746.79487076;4766.41025753;4268.33333341;4103.58974332;4071.41025607;4109.35897408;3713.07692197
3710.38461428;4168.58974345;5160.12820708;4497.56410312;4827.05128331;2305.38461129;70.89742708;-0.00000896;5323.33333563;3716.66666556;4667.69230860;4241.66666667;4070.25640991;4070.25640991;4108.58974332;3713.07692197
3682.05128087;4140.76923056;4634.10256494;4501.15384671;4697.69230867;2331.53845751;229.99999153;-0.00000896;5289.61538684;3710.51281940;4073.71794837;4268.20512828;3584.99999861;4072.30769196;4107.05128178;3680.25640908
3679.61538344;4140.76923056;4665.89743680;4504.48718005;4701.02564200;2304.99999590;70.89742708;-0.00000896;5253.07692523;3682.94871677;4039.23076882;4241.53846154;3618.07692176;4072.30769196;4107.82051255;3680.25640908
3678.33333216;4138.58974339;4339.10256431;4530.38461601;4666.02564193;2304.74358565;229.99999153;-0.00000896;5193.58974561;3677.05128087;3713.46153735;4266.79487187;3288.58974158;4072.30769196;4106.41025614;3680.25640908
3676.15384498;4137.30769210;4339.35897457;4531.92307755;4764.23077035;2302.82050872;70.89742708;-0.00000896;5159.74359169;3617.94871663;3713.97435787;4241.66666667;3317.94871601;4073.58974325;4103.07692280;3680.25640908
3678.46153728;4137.17948697;4240.38461539;4534.10256473;4925.76923223;2299.74358565;229.99999153;-0.00000896;5123.97436085;3616.41025509;3549.10256265;4270.00000007;3184.87179265;4072.94871761;4104.99999973;3680.25640908
3679.74358857;4137.17948697;4301.53846168;4535.89743653;4924.48718095;2303.84614975;70.89742708;-0.00000896;5056.15384789;3578.97435759;3613.71794740;4269.35897443;3222.69230554;4074.74358940;4102.69230742;3680.25640908
3682.05128087;4135.64102544;4337.43589765;4562.69230839;4830.76923202;2336.41025238;229.99999153;-0.00000896;4990.12820673;3549.10256265;3617.82051150;4268.20512828;3254.99999792;4074.74358940;4103.46153819;3680.25640908
3711.15384505;4139.99999980;4334.48717970;4562.69230839;5029.48718116;2364.35897040;70.89742708;-0.00000896;4926.66666813;3486.79487020;3678.46153728;4267.56410264;3287.43589542;4076.53846119;4102.56410229;3713.07692197
3715.89743479;4142.43589723;4432.82051324;4535.12820576;4798.58974477;2334.61538059;229.99999153;-0.00000896;4892.43589883;3479.74358815;3743.71794768;4270.76923084;3382.94871615;4076.66666632;4077.05128171;3713.07692197
3746.66666563;4170.25641012;4334.48717970;4532.05128268;4988.84615545;2304.87179078;70.89742708;-0.00000896;4860.51282184;3453.71794705;3649.23076798;4270.64102571;3420.76922904;4104.61538434;4076.79487145;3745.89743486
3776.02564006;4174.35897422;4463.97435946;4531.15384678;4792.69230888;2300.64102155;229.99999153;-0.00000896;4830.00000125;3421.28204955;3782.17948621;4267.43589751;3486.66666507;4104.48717921;4076.92307658;3778.71794775
3781.02564006;4203.07692301;4533.97435960;4529.74359037;4863.33333466;2265.89743173;70.89742708;-0.00000896;4799.74359093;3417.43589570;3841.66666584;4272.30769238;3551.41025495;4103.58974332;4075.89743555;3778.71794775
3809.74358884;4204.87179481;4667.43589834;4532.56410319;4862.17948850;2239.74358551;229.99999153;-0.00000896;4794.23077042;3420.51281878;3978.46153791;4273.84615392;3613.97435766;4077.82051248;4076.28205094;3811.53846064
3813.71794782;4207.69230763;4728.97436002;4534.35897499;4958.58974512;2268.58973942;70.89742708;-0.00000896;4762.05128317;3416.66666493;4043.71794830;4270.25641033;3714.23076812;4106.15384588;4075.89743555;3811.53846064
3842.17948635;4208.71794865;4859.87179620;4536.79487242;4797.05128324;2206.79486749;229.99999153;-0.00000896;4761.02564214;3413.84615211;4172.56410243;4272.82051289;3780.38461442;4105.89743562;4076.02564068;3844.35897353
3843.71794789;4208.84615378;4962.05128358;4566.41025711;4793.97436016;2232.43589320;70.89742708;-0.00000896;4734.23077028;3416.41025468;4333.46153867;4270.76923084;3877.30769155;4105.38461511;4075.12820478;3844.35897353
3845.76922994;4234.87179488;4925.00000146;4568.84615454;4792.69230888;2239.61538038;229.99999153;-0.00000896;4665.25641116;3388.33333153;4240.76923077;4271.53846161;3844.35897353;4107.30769203;4072.94871761;3844.35897353
3874.10256334;4237.17948718;4993.46154006;4569.61538531;4696.28205226;2267.43589327;70.89742708;-0.00000896;4602.17948795;3388.20512640;4373.20512849;4272.05128212;3942.43589681;4108.33333306;4074.48717914;3877.17948642
3879.48717873;4239.48717949;4956.41025794;4597.43589820;4726.92307797;2237.17948294;229.99999153;-0.00000896;4569.74359044;3388.07692127;4304.87179501;4270.76923084;3872.82051206;4110.51282024;4074.48717914;3877.30769155
3908.71794803;4241.92307693;4892.82051421;4599.10256487;4628.46153930;2233.46153423;70.89742708;-0.00000896;4564.48718019;3386.02563922;4241.28205129;4273.33333341;3812.56410166;4110.64102537;4071.92307658;3910.12820444
3911.66666598;4266.66666674;4897.94871934;4601.66666743;4693.84615482;2231.92307269;229.99999153;-0.00000896;4531.66666730;3382.05128025;4272.82051289;4273.07692315;3813.46153756;4136.15384595;4074.10256376;3910.12820444
3913.46153777;4266.92307700;4990.76923237;4629.48718032;4763.84615496;2200.51281621;70.89742708;-0.00000896;4503.46153902;3381.41025461;4369.87179515;4273.07692315;3911.41025572;4137.43589723;4074.35897402;3910.12820444
3939.35897374;4268.20512828;5156.02564298;4630.64102648;4896.28205268;2201.66666236;229.99999153;-0.00000896;4497.56410312;3383.58974179;4563.33333403;4273.20512828;4075.12820478;4138.58974339;4074.23076889;3942.94871733
3939.87179425;4269.87179495;5225.89743799;4661.15384706;4832.30769356;2173.71794434;70.89742708;-0.00000896;4471.66666716;3381.15384435;4600.12820590;4273.33333341;4103.20512793;4137.69230749;4074.10256376;3942.94871733
3938.97435835;4271.28205136;5222.17948927;4667.56410347;4928.07692454;2199.10255980;229.99999153;-0.00000896;4466.66666716;3382.94871615;4601.41025718;4274.61538469;4140.38461518;4140.12820492;4074.10256376;3942.94871733
3938.84615322;4274.74358982;5317.56410486;4699.87179585;4858.58974491;2232.94871371;8239.61539310;-0.00000896;4401.02564138;3386.66666486;4731.02564207;4300.12820527;4175.64102551;4141.53846133;4074.35897402;3942.94871733
3939.74358912;4301.66666681;5255.89743806;4730.38461643;4892.30769370;2235.76922653;69.48717067;-0.00000896;4337.43589765;3414.23076750;4698.84615482;4300.89743604;4175.38461525;4143.07692287;4074.10256376;3943.07692246
3913.71794803;4304.35897450;5386.41025885;4732.43589848;4828.71794997;2233.71794448;8244.61539310;-0.00000896;4305.38461553;3414.74358801;4831.02564228;4274.74358982;4300.12820527;4141.79487159;4077.05128171;3910.25640957
3911.92307623;4307.05128219;5353.33333570;4760.25641137;4565.38461608;2272.43589327;229.99999153;-0.00000896;4234.35897436;3384.74358794;4759.23077035;4274.74358982;4241.15384616;4168.84615371;4074.10256376;3910.25640957
3909.99999931;4335.64102585;5253.97436113;4760.38461650;4501.92307748;2271.02563686;229.99999153;-0.00000896;4137.05128185;3388.46153666;4696.92307790;4300.89743604;4233.84615385;4169.99999986;4074.61538427;3910.25640957
3911.15384546;4365.64102592;5285.00000223;4732.82051387;4664.74359065;2265.25640609;229.99999153;-0.00000896;4076.92307658;3418.20512647;4727.82051387;4301.28205142;4207.56410250;4169.48717935;4072.69230735;3910.25640957
3912.30769162;4370.00000028;5254.23077139;4729.87179592;4767.05128317;2268.71794455;229.99999153;-0.00000896;4041.53846113;3420.12820339;4759.74359086;4300.38461553;4206.15384609;4173.97435884;4075.12820478;3910.25640957
3912.17948649;4400.25641061;5256.79487395;4726.79487284;4765.38461650;2268.46153430;-0.00000896;-0.00000896;3979.10256355;3420.38461365;4767.05128317;4301.92307707;4236.15384616;4172.69230756;4075.25640991;3910.25640957
3912.56410187;4431.92307734;5187.43589945;4697.82051380;4826.41025766;2236.41025218;-0.00000896;-0.00000896;3939.99999938;3453.46153680;4727.05128310;4301.15384630;4204.48717942;4175.89743576;4075.64102530;3910.12820444
3939.10256348;4438.07692350;5188.20513022;4699.35897534;4831.66666792;2203.07691877;-0.00000896;-0.00000896;3877.30769155;3516.28204976;4730.12820617;4303.20512835;4203.71794865;4174.23076910;4076.15384581;3942.94871733
3941.66666605;4466.79487229;5124.74359162;4700.25641123;4826.41025766;2201.53845723;-0.00000896;-0.00000896;3813.71794782;3549.87179342;4664.48718039;4300.64102578;4142.69230749;4201.15384609;4076.92307658;3942.94871733
3946.53846092;4467.05128254;5122.05128393;4701.41025739;4957.43589897;2234.35897012;-0.00000896;-0.00000896;3743.07692204;3545.89743444;4630.64102648;4301.92307707;4104.87179460;4203.71794865;4077.30769196;3942.94871733
3974.10256355;4496.41025697;5152.94871990;4726.79487284;4891.02564242;2200.38461108;-0.00000896;-0.00000896;3681.79487062;3585.25640887;4699.35897534;4301.41025655;4174.48717935;4203.33333327;4077.56410222;3975.89743535
3978.33333278;4496.53846210;4958.71795025;4693.84615482;5062.17948892;2200.89743159;-0.00000896;-0.00000896;3644.87179362;3617.05128073;4567.43589813;4301.66666681;4108.20512793;4204.61538455;4103.46153819;3975.76923022
4007.69230721;4471.02564152;4893.58974498;4660.89743680;5121.53846342;2168.07691870;-0.00000896;-0.00000896;3615.12820381;3643.97435773;4502.17948774;4302.17948732;4040.51282010;4206.02564096;4103.58974332;4008.58974311
4009.99999952;4471.53846203;4960.51282205;4634.35897520;5058.84615559;2168.58973922;-0.00000896;-0.00000896;3581.15384477;3681.15384498;4532.69230832;4301.28205142;4076.79487145;4206.41025634;4104.23076896;4008.58974311
4040.51282010;4499.74359030;5022.05128372;4634.35897520;4930.00000146;2172.17948281;-0.00000896;-0.00000896;3512.82051130;3709.35897325;4568.46153916;4302.43589758;4138.71794851;4207.05128199;4105.89743562;4041.41025600
4071.92307658;4501.41025697;5091.15384796;4634.74359058;5057.17948892;2168.84614947;-0.00000896;-0.00000896;3452.30769064;3745.76922973;4699.23077021;4303.58974373;4204.23076917;4207.43589737;4105.51282024;4074.23076889
4104.23076896;4503.07692364;5155.51282246;4633.58974443;5090.00000181;2138.58973915;-0.00000896;-0.00000896;3449.35897270;3748.07692204;4764.23077035;4301.92307707;4234.87179488;4233.84615385;4107.17948691;4107.05128178
4135.51282031;4502.82051338;5156.79487374;4631.53846238;5027.69230936;2138.71794427;-0.00000896;-0.00000896;3450.38461372;3774.74358877;4732.05128310;4303.71794886;4241.41025641;4234.23076923;4106.28205101;4139.87179467
4140.38461518;4502.43589800;5251.28205344;4635.64102648;5256.92307908;2168.71794434;-0.00000896;-0.00000896;3446.92307526;3781.28205031;4831.41025766;4301.92307707;4339.23076944;4235.51282052;4106.92307665;4139.87179467
4168.97435884;4529.48718012;5189.61538663;4663.07692398;5290.89743812;2237.17948294;-0.00000896;-0.00000896;3354.87179300;3810.64102474;4862.56410389;4305.00000014;4371.66666695;4237.17948718;4108.07692280;4172.69230756
4201.53846147;4532.82051345;5159.48718144;4663.46153937;5159.48718144;2203.97435467;-0.00000896;-0.00000896;3288.58974158;3843.33333250;4831.66666792;4301.02564117;4370.38461567;4238.33333334;4110.12820485;4205.51282045
4208.58974352;4534.48718012;5025.12820680;4663.33333424;5125.25641214;2169.99999563;-0.00000896;-0.00000896;3289.23076722;3876.28205052;4699.48718046;4300.12820527;4469.74359023;4238.46153847;4109.23076896;4205.51282045
4239.61538462;4532.82051345;4959.10256564;4662.05128296;5126.28205316;2200.76922646;-0.00000896;-0.00000896;3287.69230568;3876.41025565;4632.05128289;4303.33333348;4370.76923105;4240.51282052;4110.12820485;4238.33333334
4268.20512828;4534.61538524;4896.28205268;4665.76923168;5259.35897652;2267.17948301;-0.00000896;-0.00000896;3254.23076715;3876.79487103;4568.58974429;4274.10256418;4498.07692364;4238.46153847;4110.38461511;4271.15384623
4271.15384623;4536.92307755;4958.33333487;4664.61538552;5547.05128483;2333.33332931;-0.00000896;-0.00000896;3221.66666452;3912.17948649;4632.94871879;4303.97435912;4529.48718012;4240.64102564;4136.41025621;4271.15384623
