Gyro-X;Gyro-Z;AF3;Gyro-Y;T7;Acc-X;Pz;QualityData_1;QualityData_2;Acc-Z;Acc-Y;T8;Mag-X;AF4;Mag-Z;Mag-Y;Mag-X;Gyro-X 
4206.79487173;4175.51282038;4958.46153999;4237.30769231;3517.17948565;2200.12820082;229.99999153;-0.00000896;3256.79486971;4201.41025634;4004.74358926;4300.51282066;4730.25641130;4301.66666681;4173.84615371;4205.12820506
4206.02564096;4201.02564096;4859.61538594;4236.79487180;3646.92307568;2203.07691877;39.74358085;-0.00000896;3256.15384407;4204.23076917;3810.51281961;4273.84615392;4697.82051380;4301.66666681;4173.84615371;4205.12820506
4207.05128199;4176.28205115;4831.15384741;4236.66666667;3450.12820346;2201.66666236;229.99999153;-0.00000896;3254.10256202;4201.79487173;3746.15384512;4301.92307707;4595.25641102;4303.20512835;4174.35897422;4205.12820506
4206.53846147;4201.53846147;4927.17948864;4235.12820513;3583.20512682;2203.58973929;39.74358085;-0.00000896;3256.28204920;4173.20512807;3878.84615309;4302.05128219;4635.00000084;4303.07692322;4173.97435884;4205.12820506
4207.05128199;4201.28205122;4797.17948836;4234.74358975;3449.10256244;2199.74358544;229.99999153;-0.00000896;3255.89743382;4172.43589730;3709.10256299;4301.41025655;4634.74359058;4302.82051296;4174.35897422;4205.12820506
4206.66666660;4201.28205122;4989.48718109;4234.10256411;3711.66666556;2199.48717518;39.74358085;-0.00000896;3256.15384407;4171.92307679;3945.89743528;4301.28205142;4562.69230839;4301.66666681;4174.23076910;4205.12820506
4207.69230763;4201.28205122;4826.41025766;4235.51282052;3449.35897270;2203.71794441;229.99999153;-0.00000896;3282.56410055;4202.17948711;3971.28205073;4273.33333341;4666.92307783;4302.05128219;4174.61538448;4205.12820506
4208.46153840;4201.66666660;4828.33333459;4235.64102564;3618.33333202;2202.94871364;39.74358085;-0.00000896;3256.66666459;4175.12820499;3873.46153770;4302.17948732;4633.71794956;4301.92307707;4173.97435884;4205.12820506
4207.94871788;4202.43589737;4633.33333417;4235.38461539;3347.94871608;2202.94871364;229.99999153;-0.00000896;3256.66666459;4172.56410243;3715.76922966;4303.07692322;4664.23077014;4302.17948732;4174.61538448;4205.12820506
4208.84615378;4202.94871788;4992.43589904;4235.64102564;3710.89743479;2202.69230339;39.74358085;-0.00000896;3256.53845946;4172.69230756;3880.25640950;4301.28205142;4598.46153923;4302.56410271;4174.10256397;4205.12820506
4208.97435891;4203.84615378;4859.61538594;4236.53846154;3449.48717782;2199.23076493;229.99999153;-0.00000896;3284.87179286;4201.15384609;3875.25640950;4302.17948732;4568.97435967;4302.17948732;4175.51282038;4205.12820506
4209.10256404;4203.58974352;4826.66666792;4235.76923077;3584.35897297;2172.43589306;39.74358085;-0.00000896;3284.74358773;4169.99999986;3976.66666611;4300.76923091;4696.66666764;4300.51282066;4173.71794858;4205.12820506
4234.23076923;4202.82051275;4829.61538587;4236.79487180;3577.82051143;2206.79486749;229.99999153;-0.00000896;3282.82051081;4202.05128199;3878.71794796;4301.66666681;4468.97435946;4302.30769245;4174.48717935;4237.94871795
4234.61538462;4203.46153840;4829.48718074;4237.30769231;3482.94871635;2203.71794441;39.74358085;-0.00000896;3284.10256209;4202.56410250;3974.35897381;4301.28205142;4799.74359093;4302.30769245;4173.58974345;4237.94871795
4234.61538462;4203.97435891;4764.74359086;4236.41025641;3646.53846029;2202.30768800;229.99999153;-0.00000896;3286.66666466;4204.35897429;3841.28205045;4299.61538476;4730.00000105;4302.56410271;4173.84615371;4237.94871795
4207.17948711;4203.20512814;4956.92307846;4237.69230770;3485.38461379;2199.10255980;39.74358085;-0.00000896;3284.61538260;4174.87179474;3906.41025572;4300.76923091;4698.20512918;4302.43589758;4171.79487166;4205.12820506
4206.66666660;4202.43589737;4830.89743715;4236.41025641;3517.05128053;2200.89743159;229.99999153;-0.00000896;3255.64102356;4173.71794858;3974.99999945;4303.71794886;4600.51282128;4301.92307707;4174.10256397;4205.12820506
4206.41025634;4202.94871788;4990.25641186;4237.82051282;3486.02563943;2200.76922646;39.74358085;-0.00000896;3254.61538253;4174.99999986;3811.02564013;4300.64102578;4731.02564207;4302.56410271;4173.97435884;4205.12820506
4207.05128199;4202.56410250;4764.87179599;4237.17948718;3483.46153687;2201.79486749;229.99999153;-0.00000896;3253.20512612;4203.07692301;3809.35897346;4302.30769245;4760.12820624;4301.41025655;4173.84615371;4205.12820506
4206.15384609;4203.33333327;4927.94871941;4236.92307693;3746.02563999;2201.53845723;39.74358085;-0.00000896;3250.64102356;4203.84615378;3913.20512751;4299.48717963;4832.43589869;4302.82051296;4174.61538448;4205.12820506
4206.79487173;4202.94871788;4992.69230929;4236.28205129;3453.58974193;2173.84614947;229.99999153;-0.00000896;3249.23076715;4202.30769224;3909.99999931;4274.61538469;4596.53846231;4303.20512835;4173.58974345;4205.12820506
4207.30769224;4203.33333327;4829.61538587;4235.25641026;3544.87179342;2201.28204698;39.74358085;-0.00000896;3251.41025433;4204.23076917;3873.84615309;4300.89743604;4564.35897506;4303.07692322;4173.46153833;4205.12820506
4207.69230763;4202.17948711;4858.97436030;4235.38461539;3483.07692148;2205.51281621;229.99999153;-0.00000896;3252.43589536;4175.25641012;3748.33333229;4301.66666681;4564.48718019;4302.30769245;4173.97435884;4205.12820506
4207.30769224;4203.07692301;4798.58974477;4235.76923077;3645.76922952;2202.69230339;39.74358085;-0.00000896;3256.41025433;4201.66666660;3941.66666605;4301.28205142;4599.23077000;4301.53846168;4172.56410243;4205.12820506
4207.30769224;4202.56410250;4729.87179592;4233.97435898;3618.20512689;2204.35897005;229.99999153;-0.00000896;3256.53845946;4173.58974345;3845.51281968;4274.74358982;4597.17948795;4301.41025655;4173.71794858;4205.12820506
4205.89743583;4202.43589737;4797.94871913;4208.97435891;3581.92307554;2204.10255980;39.74358085;-0.00000896;3256.92307484;4202.56410250;4042.30769189;4301.02564117;4728.46153951;4303.20512835;4174.10256397;4205.12820506
4204.99999993;4203.46153840;4796.15384734;4234.48717949;3418.46153673;2202.43589313;229.99999153;-0.00000896;3256.79486971;4175.12820499;3840.76922994;4300.25641040;4535.76923140;4302.82051296;4174.87179474;4205.12820506
4203.84615378;4203.58974352;4896.79487319;4233.97435898;3549.87179342;2203.97435467;2.05127309;-0.00000896;3256.41025433;4174.61538448;4006.53846106;4302.69230784;4764.23077035;4303.46153860;4173.84615371;4205.12820506
4204.61538455;4204.23076917;4928.97436044;4234.87179488;3512.30769078;2202.56409826;8238.20513669;-0.00000896;3253.07692100;4174.99999986;3676.02563985;4302.17948732;4563.46153916;4302.56410271;4174.23076910;4205.12820506
4204.87179481;4203.46153840;4890.76923216;4233.84615385;3614.23076791;2203.58973929;-0.00000896;-0.00000896;3252.82051074;4174.99999986;3841.02564020;4301.15384630;4726.15384720;4303.84615399;4173.97435884;4205.12820506
4205.25641019;4203.84615378;4859.87179620;4234.74358975;3584.10256272;2200.76922646;229.99999153;-0.00000896;3253.84615177;4201.79487173;3972.69230714;4301.15384630;4631.28205212;4303.07692322;4173.71794858;4205.12820506
4205.64102558;4202.82051275;4764.74359086;4208.58974352;3417.94871622;2199.87179057;229.99999153;-0.00000896;3255.51281843;4176.15384602;3710.51281940;4274.48717956;4564.48718019;4303.20512835;4174.10256397;4205.12820506
4206.28205122;4201.53846147;4994.87179647;4209.10256404;3676.66666549;2202.05127775;229.99999153;-0.00000896;3255.12820305;4174.23076910;3840.38461455;4301.02564117;4727.17948823;4304.10256425;4172.94871781;4205.12820506
4206.41025634;4202.82051275;4793.07692426;4209.10256404;3480.76922917;2203.33332903;229.99999153;-0.00000896;3255.76922869;4202.82051275;4010.76923029;4301.02564117;4765.25641137;4301.02564117;4174.48717935;4205.12820506
4206.28205122;4202.56410250;4764.35897547;4235.25641026;3681.41025523;2203.33332903;-0.00000896;-0.00000896;3256.02563894;4176.15384602;3875.89743514;4300.25641040;4697.30769328;4301.92307707;4172.56410243;4205.12820506
4205.76923070;4202.30769224;4829.35897561;4234.61538462;3519.35897283;2199.99999570;-0.00000896;-0.00000896;3255.64102356;4201.15384609;3944.35897374;4301.02564117;4501.79487235;4302.05128219;4173.46153833;4205.12820506
4205.25641019;4202.30769224;4860.51282184;4234.74358975;3518.07692155;2200.76922646;-0.00000896;-0.00000896;3256.28204920;4202.43589737;3878.97435821;4303.46153860;4764.87179599;4301.15384630;4174.48717935;4205.12820506
4204.35897429;4201.92307686;4862.17948850;4236.15384616;3581.53846015;2201.02563672;-0.00000896;-0.00000896;3255.89743382;4175.38461525;3682.94871677;4300.38461553;4635.12820597;4302.82051296;4174.61538448;4205.12820506
4204.74358968;4202.56410250;4928.07692454;4234.10256411;3550.76922931;2205.76922646;-0.00000896;-0.00000896;3253.71794664;4174.23076910;3975.25640970;4300.25641040;4564.10256480;4302.56410271;4173.58974345;4205.12820506
4203.71794865;4202.69230763;4732.43589848;4235.38461539;3611.66666535;2202.43589313;-0.00000896;-0.00000896;3253.33333125;4171.02564089;4072.17948684;4274.74358982;4666.66666757;4302.43589758;4172.17948704;4205.12820506
4203.97435891;4202.43589737;4824.87179613;4233.97435898;3547.05128060;2201.41025211;-0.00000896;-0.00000896;3253.97435689;4176.28205115;3905.64102495;4301.66666681;4631.15384699;4301.53846168;4174.23076910;4205.12820506
4204.23076917;4202.94871788;4734.10256515;4235.12820513;3418.58974186;2199.74358544;-0.00000896;-0.00000896;3255.89743382;4201.79487173;3679.99999882;4300.64102578;4633.97435981;4302.05128219;4174.35897422;4205.12820506
4204.99999993;4202.56410250;4993.20512981;4235.00000000;3714.35897325;2202.69230339;-0.00000896;-0.00000896;3255.25640818;4176.02564089;3873.58974283;4301.92307707;4697.05128303;4301.41025655;4174.10256397;4205.12820506
4205.38461532;4202.82051275;4892.30769370;4235.51282052;3452.82051116;2200.38461108;-0.00000896;-0.00000896;3256.53845946;4175.38461525;3842.82051199;4301.15384630;4665.25641116;4303.84615399;4176.02564089;4205.12820506
4206.15384609;4202.43589737;4895.89743729;4236.66666667;3616.02563971;2204.10255980;-0.00000896;-0.00000896;3256.92307484;4201.92307686;4038.33333292;4300.12820527;4628.97435981;4302.05128219;4173.84615371;4205.12820506
4207.05128199;4202.17948711;4598.33333410;4237.82051282;3546.66666521;2205.25640595;-0.00000896;-0.00000896;3283.97435696;4170.25641012;3907.94871726;4301.53846168;4597.94871872;4302.82051296;4173.84615371;4205.12820506
4206.66666660;4203.07692301;4862.43589876;4237.69230770;3483.46153687;2203.58973929;-0.00000896;-0.00000896;3255.51281843;4173.07692294;3942.05128143;4300.76923091;4794.10256529;4301.66666681;4173.58974345;4205.12820506
4206.02564096;4203.07692301;4829.10256536;4236.79487180;3617.05128073;2204.99999570;-0.00000896;-0.00000896;3252.82051074;4174.99999986;3814.87179397;4302.43589758;4700.38461636;4302.43589758;4174.99999986;4205.12820506
4205.25641019;4203.71794865;5025.12820680;4236.66666667;3581.28204990;2203.46153416;-0.00000896;-0.00000896;3252.82051074;4175.25641012;3809.10256320;4301.02564117;4729.61538566;4303.20512835;4173.97435884;4205.12820506
4205.38461532;4203.07692301;4765.64102676;4234.61538462;3481.28204969;2205.76922646;-0.00000896;-0.00000896;3252.56410048;4173.46153833;3940.25640963;4301.28205142;4499.48718005;4302.17948732;4174.35897422;4205.12820506
4205.64102558;4202.69230763;4897.94871934;4235.25641026;3676.53846036;2204.35897005;-0.00000896;-0.00000896;3252.69230561;4170.76923063;3942.69230707;4273.71794879;4795.25641144;4301.92307707;4172.17948704;4205.12820506
4205.64102558;4203.46153840;4728.84615489;4235.00000000;3483.71794712;2203.20512390;-0.00000896;-0.00000896;3253.58974151;4175.12820499;3714.48717838;4299.61538476;4504.23076979;4302.69230784;4173.97435884;4205.12820506
4206.15384609;4202.82051275;4991.79487340;4235.12820513;3681.41025523;2199.35897005;-0.00000896;-0.00000896;3252.82051074;4174.61538448;3973.07692252;4301.79487194;4829.10256536;4303.33333348;4172.05128192;4205.12820506
4205.38461532;4202.05128199;4891.66666806;4234.74358975;3550.89743444;2206.28204698;-0.00000896;-0.00000896;3253.20512612;4173.46153833;3908.97435828;4302.30769245;4661.02564193;4302.94871809;4173.84615371;4205.12820506
4206.41025634;4204.35897429;4896.28205268;4235.12820513;3611.02563971;2205.64102134;-0.00000896;-0.00000896;3251.41025433;4169.61538448;3940.89743528;4302.43589758;4663.71794963;4301.92307707;4173.97435884;4205.12820506
4206.79487173;4203.58974352;4793.97436016;4234.74358975;3544.87179342;2203.20512390;-0.00000896;-0.00000896;3254.61538253;4175.89743576;3879.87179411;4302.30769245;4499.74359030;4304.74358989;4174.10256397;4205.12820506
4206.28205122;4203.07692301;4897.30769370;4235.51282052;3481.15384456;2170.89743152;-0.00000896;-0.00000896;3257.05127997;4201.15384609;4011.28205080;4300.51282066;4859.87179620;4302.56410271;4174.35897422;4205.12820506
4206.28205122;4202.17948711;4827.30769356;4233.97435898;3709.48717838;2200.38461108;-0.00000896;-0.00000896;3257.30769023;4172.05128192;3842.94871712;4302.05128219;4635.51282135;4303.84615399;4173.97435884;4205.12820506
4205.76923070;4202.43589737;4859.61538594;4234.74358975;3452.94871628;2205.12820082;229.99999153;-0.00000896;3254.61538253;4173.20512807;3809.10256320;4299.61538476;4665.64102655;4302.56410271;4174.23076910;4205.12820506
4207.05128199;4202.94871788;4829.87179613;4236.28205129;3479.48717789;2201.53845723;40.64101675;-0.00000896;3253.71794664;4170.64102551;3844.48717866;4299.48717963;4534.23076986;4303.58974373;4176.02564089;4205.12820506
4206.66666660;4203.07692301;4890.64102703;4236.79487180;3451.28204962;2199.48717518;8306.28205990;-0.00000896;3254.61538253;4203.58974352;3880.76923001;4300.89743604;4828.97436023;4301.92307707;4173.97435884;4205.12820506
4206.41025634;4202.17948711;4990.38461699;4236.66666667;3709.35897325;2200.12820082;-0.00000896;-0.00000896;3253.33333125;4175.89743576;3713.20512710;4274.74358982;4565.12820583;4301.79487194;4172.56410243;4205.12820506
4207.05128199;4202.43589737;4766.66666778;4235.89743590;3548.33333188;2201.79486749;229.99999153;-0.00000896;3251.66666459;4204.23076917;4072.43589709;4301.28205142;4732.05128310;4303.07692322;4173.58974345;4205.12820506
4207.94871788;4201.28205122;4766.15384727;4236.92307693;3582.30769092;2205.25640595;229.99999153;-0.00000896;3252.17948510;4201.79487173;3972.05128150;4300.76923091;4662.43589834;4302.82051296;4172.82051269;4205.12820506
4207.94871788;4202.05128199;4695.64102662;4235.00000000;3582.05128067;2205.25640595;229.99999153;-0.00000896;3252.56410048;4201.66666660;3879.87179411;4301.28205142;4661.92307783;4302.17948732;4173.71794858;4205.12820506
4206.66666660;4201.41025634;4958.33333487;4236.02564103;3449.87179321;2205.12820082;229.99999153;-0.00000896;3253.58974151;4176.28205115;3876.92307616;4301.15384630;4799.61538580;4301.28205142;4173.33333320;4205.12820506
4206.53846147;4201.53846147;4926.92307839;4235.51282052;3709.74358864;2205.64102134;229.99999153;-0.00000896;3255.38461330;4175.38461525;3972.05128150;4301.41025655;4701.41025739;4303.33333348;4173.84615371;4205.12820506
4206.02564096;4202.43589737;4861.79487312;4235.00000000;3516.02563950;2203.84614954;229.99999153;-0.00000896;3254.87179279;4170.25641012;3846.02564020;4301.79487194;4503.07692364;4302.30769245;4172.56410243;4205.12820506
4205.38461532;4203.58974352;4697.82051380;4235.25641026;3709.99999889;2204.48717518;229.99999153;-0.00000896;3253.97435689;4170.76923063;4012.05128157;4300.25641040;4695.12820610;4303.33333348;4173.71794858;4205.12820506
4204.35897429;4202.82051275;4795.51282170;4236.79487180;3451.53845987;2203.97435467;229.99999153;-0.00000896;3252.17948510;4173.07692294;3845.38461455;4302.05128219;4697.17948816;4302.05128219;4173.84615371;4205.12820506
4203.97435891;4204.23076917;4897.94871934;4235.89743590;3544.61538316;2205.64102134;229.99999153;-0.00000896;3250.25640818;4202.94871788;3847.94871712;4302.05128219;4764.23077035;4301.66666681;4173.84615371;4205.12820506
4204.87179481;4204.23076917;4863.07692440;4235.76923077;3617.17948586;2206.15384185;229.99999153;-0.00000896;3252.69230561;4205.89743583;3812.43589654;4303.33333348;4628.97435981;4303.58974373;4173.97435884;4205.12820506
4205.12820506;4202.82051275;4762.30769342;4236.15384616;3584.35897297;2202.17948288;229.99999153;-0.00000896;3252.17948510;4176.28205115;4070.12820478;4300.00000014;4466.92307741;4302.43589758;4172.43589730;4205.12820506
4204.74358968;4203.33333327;4861.15384748;4235.38461539;3582.30769092;2232.94871371;229.99999153;-0.00000896;3251.02563894;4175.38461525;3878.97435821;4301.15384630;4566.66666737;4301.02564117;4174.35897422;4205.12820506
4206.53846147;4202.17948711;4796.53846272;4235.12820513;3453.97435731;2203.58973929;229.99999153;-0.00000896;3249.99999792;4173.58974345;3749.61538358;4301.92307707;4759.61538573;4303.97435912;4174.10256397;4205.12820506
4207.69230763;4201.79487173;4963.58974512;4235.76923077;3676.28205010;2205.76922646;229.99999153;-0.00000896;3251.41025433;4173.58974345;3873.97435821;4301.79487194;4529.48718012;4302.56410271;4173.97435884;4205.12820506
4206.79487173;4201.28205122;4794.35897554;4235.76923077;3454.23076757;2200.64102134;229.99999153;-0.00000896;3253.84615177;4173.84615371;3875.64102488;4301.53846168;4666.92307783;4303.33333348;4174.61538448;4205.12820506
4206.28205122;4201.66666660;4861.53846286;4237.05128206;3552.30769085;2200.25640595;229.99999153;-0.00000896;3255.25640818;4205.89743583;3911.41025572;4300.76923091;4599.74359051;4303.07692322;4173.97435884;4205.12820506
4206.66666660;4201.66666660;4699.35897534;4236.02564103;3545.64102419;2202.17948288;229.99999153;-0.00000896;3253.07692100;4202.43589737;3878.58974283;4300.89743604;4534.87179550;4304.48717963;4174.10256397;4205.12820506
4206.15384609;4202.17948711;4924.48718095;4236.66666667;3550.76922931;2204.10255980;229.99999153;-0.00000896;3252.56410048;4173.33333320;3910.76923008;4300.00000014;4826.66666792;4302.69230784;4173.84615371;4205.12820506
4205.89743583;4201.66666660;4896.79487319;4236.15384616;3682.43589626;2203.84614954;229.99999153;-0.00000896;3251.02563894;4173.07692294;3809.48717859;4302.05128219;4695.38461636;4303.33333348;4174.87179474;4205.12820506
4204.74358968;4201.53846147;4960.89743743;4235.64102564;3708.71794761;2202.69230339;229.99999153;-0.00000896;3251.28204920;4174.74358961;4109.74358947;4303.71794886;4633.97435981;4302.05128219;4173.71794858;4205.12820506
4204.61538455;4202.94871788;4696.28205226;4235.25641026;3285.64102363;2203.58973929;229.99999153;-0.00000896;3252.43589536;4171.66666653;3814.61538372;4302.05128219;4729.35897541;4303.46153860;4173.71794858;4205.12820506
4204.23076917;4202.43589737;4994.87179647;4235.64102564;3582.17948579;2204.10255980;229.99999153;-0.00000896;3251.28204920;4175.89743576;4008.84615336;4302.69230784;4568.58974429;4302.82051296;4175.25641012;4205.12820506
4203.84615378;4202.17948711;4731.79487284;4234.87179488;3383.97435717;2204.35897005;229.99999153;-0.00000896;3251.53845946;4171.28205115;3713.84615274;4302.05128219;4764.10256522;4302.82051296;4173.97435884;4205.12820506
4204.10256404;4202.82051275;4962.17948871;4235.51282052;3741.79487076;2205.76922646;229.99999153;-0.00000896;3251.02563894;4170.51282038;3841.92307609;4302.05128219;4759.23077035;4303.58974373;4173.58974345;4205.12820506
4203.20512814;4202.05128199;4796.53846272;4234.74358975;3514.10256258;2204.87179057;229.99999153;-0.00000896;3250.38461330;4171.53846140;3905.89743521;4300.51282066;4565.76923147;4302.56410271;4173.71794858;4205.12820506
4204.99999993;4202.56410250;4925.25641172;4234.48717949;3482.30769071;2205.38461108;229.99999153;-0.00000896;3250.25640818;4168.33333320;3945.38461476;4302.94871809;4698.58974457;4301.92307707;4174.10256397;4205.12820506
4205.12820506;4203.46153840;4602.30769308;4234.74358975;3647.56410132;2203.46153416;229.99999153;-0.00000896;3249.87179279;4173.84615371;3843.97435814;4300.64102578;4471.28205177;4302.43589758;4173.58974345;4205.12820506
4205.38461532;4202.94871788;4926.28205275;4234.23076923;3453.20512654;2202.17948288;229.99999153;-0.00000896;3251.02563894;4175.38461525;4009.74358926;4301.53846168;4765.76923188;4303.20512835;4172.56410243;4205.12820506
4206.02564096;4202.43589737;4930.25641172;4233.84615385;3683.58974241;2203.07691877;229.99999153;-0.00000896;3252.94871587;4175.51282038;3911.28205059;4300.38461553;4627.94871879;4302.82051296;4173.84615371;4205.12820506
4204.87179481;4202.30769224;4857.43589876;4235.25641026;3354.48717761;2203.84614954;229.99999153;-0.00000896;3250.12820305;4175.38461525;3781.66666570;4300.76923091;4566.15384685;4303.33333348;4173.71794858;4205.12820506
4204.74358968;4203.07692301;4828.58974484;4234.10256411;3647.17948593;2204.23076493;229.99999153;-0.00000896;3253.46153638;4171.15384602;3913.33333264;4301.66666681;4307.30769245;4303.07692322;4173.58974345;4205.12820506
4204.48717942;4202.30769224;4864.35897568;4234.48717949;3383.97435717;2199.23076493;229.99999153;-0.00000896;3254.74358766;4173.20512807;3807.56410166;4303.20512835;4759.61538573;4302.56410271;4175.25641012;4205.12820506
4204.74358968;4201.79487173;4895.25641165;4234.35897436;3617.43589612;2200.76922646;229.99999153;-0.00000896;3253.33333125;4202.82051275;3977.17948663;4299.48717963;4632.05128289;4303.33333348;4173.97435884;4205.12820506
4204.10256404;4202.05128199;4929.74359121;4235.76923077;3350.89743403;2233.84614961;-0.00000896;-0.00000896;3251.79486971;4176.28205115;3846.53846071;4302.56410271;4726.41025746;4304.35897450;4173.20512807;4205.12820506
4203.20512814;4203.07692301;4697.17948816;4236.28205129;3683.33333216;2204.87179057;-0.00000896;-0.00000896;3253.71794664;4174.23076910;4012.05128157;4302.69230784;4504.23076979;4303.20512835;4201.41025634;4205.12820506
4203.84615378;4202.56410250;4697.82051380;4235.51282052;3479.61538302;2203.33332903;229.99999153;-0.00000896;3256.02563894;4201.66666660;3841.28205045;4302.94871809;4698.20512918;4303.46153860;4173.20512807;4205.12820506
4203.84615378;4202.43589737;4990.64102724;4235.12820513;3584.23076784;2202.17948288;-0.00000896;-0.00000896;3254.35897228;4172.17948704;3847.94871712;4301.92307707;4529.35897499;4301.92307707;4172.82051269;4205.12820506
4203.33333327;4201.66666660;4760.25641137;4235.51282052;3551.28204983;2204.48717518;-0.00000896;-0.00000896;3251.66666459;4174.10256397;4104.23076896;4302.30769245;4797.82051401;4302.30769245;4173.71794858;4205.12820506
4203.46153840;4201.41025634;4896.53846293;4235.38461539;3615.25640894;2203.46153416;-0.00000896;-0.00000896;3251.02563894;4175.38461525;3875.38461462;4301.28205142;4700.38461636;4302.94871809;4201.79487173;4205.12820506
4203.46153840;4202.17948711;4924.23077069;4236.02564103;3452.94871628;2200.38461108;-0.00000896;-0.00000896;3224.35897221;4173.97435884;3844.10256327;4302.82051296;4660.89743680;4303.71794886;4174.10256397;4205.12820506
4203.71794865;4201.92307686;4798.97436016;4236.15384616;3480.12820353;2199.10255980;-0.00000896;-0.00000896;3224.23076708;4203.97435891;3779.61538365;4302.69230784;4632.69230853;4304.23076937;4173.97435884;4205.12820506
4203.71794865;4202.56410250;4862.05128338;4234.87179488;3547.43589598;2202.69230339;-0.00000896;-0.00000896;3223.84615170;4202.43589737;3873.20512744;4300.38461553;4697.69230867;4302.30769245;4173.97435884;4205.12820506
4205.12820506;4202.30769224;4733.33333438;4234.61538462;3678.46153728;2203.84614954;-0.00000896;-0.00000896;3222.94871580;4174.35897422;3874.99999924;4302.56410271;4568.07692378;4301.92307707;4174.87179474;4205.12820506
4205.12820506;4201.53846147;4827.69230895;4234.10256411;3517.94871642;2202.94871364;-0.00000896;-0.00000896;3251.15384407;4201.02564096;3974.48717894;4302.05128219;4632.69230853;4302.56410271;4172.56410243;4205.12820506
4205.12820506;4201.66666660;4761.28205240;4208.71794865;3645.64102439;2205.38461108;-0.00000896;-0.00000896;3253.71794664;4174.35897422;3876.79487103;4299.87179501;4660.89743680;4303.97435912;4173.58974345;4205.12820506
4204.87179481;4202.43589737;4761.15384727;4208.20512814;3417.56410083;2204.35897005;-0.00000896;-0.00000896;3254.35897228;4176.28205115;3677.94871677;4301.28205142;4629.87179571;4303.07692322;4173.97435884;4205.12820506
4203.07692301;4201.79487173;4992.43589904;4234.23076923;3647.05128080;2205.64102134;-0.00000896;-0.00000896;3254.74358766;4203.58974352;3873.07692232;4299.48717963;4567.94871865;4302.82051296;4173.58974345;4205.12820506
4201.66666660;4201.92307686;4923.33333480;4234.61538462;3518.97435745;2204.74358544;-0.00000896;-0.00000896;3256.41025433;4176.02564089;3973.71794817;4302.17948732;4797.69230888;4303.07692322;4172.05128192;4205.12820506
4175.38461525;4176.02564089;4826.66666792;4234.74358975;3514.61538309;2205.12820082;-0.00000896;-0.00000896;3253.07692100;4173.33333320;4041.79487138;4301.41025655;4563.84615454;4302.43589758;4174.10256397;4172.30769217
4174.48717935;4175.51282038;4826.53846279;4234.74358975;3486.66666507;2204.61538031;-0.00000896;-0.00000896;3252.05127997;4176.02564089;3847.30769148;4303.07692322;4568.97435967;4302.05128219;4173.71794858;4172.30769217
4173.71794858;4175.89743576;4896.79487319;4234.87179488;3449.23076757;2206.15384185;-0.00000896;-0.00000896;3251.02563894;4201.41025634;3842.56410173;4300.00000014;4859.61538594;4304.35897450;4173.58974345;4172.30769217
4173.07692294;4176.15384602;4930.38461685;4234.35897436;3643.71794747;2199.61538031;-0.00000896;-0.00000896;3252.43589536;4205.38461532;3874.99999924;4300.64102578;4733.07692412;4302.56410271;4173.84615371;4172.30769217
4173.97435884;4173.97435884;4923.71795018;4208.71794865;3579.74358836;2200.38461108;-0.00000896;-0.00000896;3254.61538253;4174.10256397;3814.74358884;4301.15384630;4693.71794969;4303.58974373;4173.58974345;4172.30769217
4172.94871781;4173.58974345;4825.51282177;4208.71794865;3512.30769078;2201.92307262;-0.00000896;-0.00000896;3253.84615177;4172.43589730;3843.84615302;4300.51282066;4565.25641096;4302.17948732;4173.58974345;4172.30769217
4172.69230756;4172.94871781;4925.12820659;4208.20512814;3647.17948593;2202.30768800;-0.00000896;-0.00000896;3252.17948510;4175.51282038;3878.33333257;4302.30769245;4700.89743687;4274.74358982;4174.10256397;4172.30769217
4172.05128192;4174.23076910;4696.15384713;4208.71794865;3421.28204955;2202.17948288;-0.00000896;-0.00000896;3252.94871587;4204.35897429;3646.66666542;4299.61538476;4696.53846252;4302.05128219;4173.71794858;4172.30769217
4172.56410243;4173.97435884;5026.41025808;4234.35897436;3747.82051178;2201.66666236;-0.00000896;-0.00000896;3250.12820305;4202.05128199;3847.56410173;4300.00000014;4663.33333424;4302.56410271;4172.56410243;4172.30769217
4172.94871781;4173.71794858;4666.79487270;4208.33333327;3512.56410104;2203.46153416;-0.00000896;-0.00000896;3250.38461330;4175.25641012;3971.79487124;4302.30769245;4496.53846210;4301.92307707;4173.58974345;4172.30769217
4172.56410243;4174.23076910;4799.23077042;4209.10256404;3616.28204997;2203.71794441;-0.00000896;-0.00000896;3250.64102356;4173.71794858;3971.53846099;4299.48717963;4503.46153902;4301.02564117;4173.58974345;4172.30769217
4173.07692294;4174.35897422;4665.12820604;4208.33333327;3579.23076784;2202.82050852;-0.00000896;-0.00000896;3254.23076715;4174.99999986;3779.87179390;4273.84615392;4500.00000056;4303.07692322;4174.10256397;4172.30769217
4172.56410243;4173.46153833;4930.38461685;4207.69230763;3645.89743465;2203.33332903;-0.00000896;-0.00000896;3255.38461330;4169.61538448;3975.51281996;4301.15384630;4796.53846272;4301.15384630;4174.87179474;4172.30769217
4171.79487166;4173.33333320;4663.97435988;4208.58974352;3617.05128073;2204.10255980;229.99999153;-0.00000896;3254.99999792;4174.23076910;3747.94871691;4303.46153860;4628.33333417;4301.92307707;4173.97435884;4172.30769217
4171.15384602;4173.58974345;4860.89743722;4207.05128199;3483.97435738;2203.71794441;229.99999153;-0.00000896;3256.28204920;4174.23076910;3876.15384539;4299.74358989;4634.61538545;4303.33333348;4173.84615371;4172.30769217
4170.25641012;4174.61538448;4795.64102683;4206.92307686;3515.76922924;2203.46153416;229.99999153;-0.00000896;3282.17948517;4170.64102551;3880.76923001;4301.15384630;4369.87179515;4299.87179501;4173.20512807;4172.30769217
4168.46153833;4174.10256397;4957.82051435;4207.56410250;3486.66666507;2201.02563672;229.99999153;-0.00000896;3254.23076715;4174.10256397;3907.69230700;4300.76923091;4860.38461671;4302.17948732;4173.33333320;4172.30769217
4142.94871774;4173.58974345;4666.28205219;4207.43589737;3649.87179362;2200.25640595;-0.00000896;-0.00000896;3256.66666459;4176.02564089;3746.79487076;4301.28205142;4627.94871879;4300.89743604;4173.84615371;4139.48717928
4168.97435884;4173.84615371;4925.76923223;4207.17948711;3614.10256279;2202.56409826;-0.00000896;-0.00000896;3255.25640818;4203.46153840;3847.56410173;4300.51282066;4761.41025753;4300.64102578;4174.23076910;4172.30769217
4142.17948697;4174.35897422;4797.30769349;4208.71794865;3482.69230610;2202.82050852;229.99999153;-0.00000896;3255.64102356;4176.28205115;3912.94871726;4302.82051296;4534.74359037;4302.17948732;4174.99999986;4139.48717928
4168.33333320;4173.84615371;4796.53846272;4233.97435898;3583.71794733;2201.92307262;-0.00000896;-0.00000896;3256.92307484;4202.30769224;3877.43589668;4304.23076937;4766.28205240;4303.46153860;4174.10256397;4172.30769217
4168.71794858;4173.84615371;4990.64102724;4234.74358975;3486.41025482;2172.69230332;229.99999153;-0.00000896;3256.02563894;4173.33333320;3742.43589640;4300.89743604;4496.53846210;4300.51282066;4174.10256397;4172.30769217
4168.20512807;4173.20512807;4925.89743736;4234.23076923;3743.71794768;2202.05127775;-0.00000896;-0.00000896;3282.17948517;4201.53846147;4008.97435849;4300.76923091;4860.00000132;4302.69230784;4173.97435884;4172.30769217
4168.71794858;4172.30769217;4796.02564221;4234.61538462;3583.20512682;2201.15384185;229.99999153;-0.00000896;3283.46153645;4202.43589737;3842.17948635;4302.56410271;4569.48718019;4302.56410271;4174.23076910;4172.30769217
4169.99999986;4172.17948704;4896.53846293;4235.12820513;3550.76922931;2204.87179057;-0.00000896;-0.00000896;3282.56410055;4174.74358961;3912.17948649;4302.17948732;4569.48718019;4302.43589758;4173.58974345;4172.30769217
4168.58974345;4171.92307679;4831.28205254;4234.48717949;3547.69230624;2207.05127775;229.99999153;-0.00000896;3282.17948517;4171.66666653;3878.20512744;4301.66666681;4627.94871879;4302.69230784;4172.30769217;4172.30769217
4168.46153833;4171.79487166;4862.82051414;4234.48717949;3515.25640873;2202.94871364;-0.00000896;-0.00000896;3256.79486971;4175.25641012;3971.53846099;4300.25641040;4797.17948836;4302.17948732;4173.97435884;4172.30769217
4168.33333320;4171.66666653;4667.94871886;4234.87179488;3644.74358850;2171.41025204;229.99999153;-0.00000896;3283.58974158;4204.23076917;3814.87179397;4299.48717963;4763.46153958;4301.28205142;4172.94871781;4172.30769217
4142.30769210;4172.94871781;4860.38461671;4235.76923077;3484.35897276;2204.61538031;-0.00000896;-0.00000896;3256.92307484;4173.07692294;3839.99999917;4301.53846168;4596.15384692;4301.66666681;4173.84615371;4139.48717928
4142.69230749;4173.33333320;4792.82051401;4236.66666667;3611.66666535;2203.46153416;229.99999153;-0.00000896;3285.89743389;4201.79487173;3876.79487103;4302.56410271;4468.07692357;4302.17948732;4173.58974345;4139.48717928
4142.56410236;4172.56410243;4830.89743715;4236.53846154;3382.69230589;2172.56409819;-0.00000896;-0.00000896;3286.92307491;4203.20512814;3742.82051178;4302.30769245;4732.05128310;4302.94871809;4174.48717935;4139.48717928
4139.61538441;4172.56410243;4762.43589855;4237.05128206;3678.33333216;2202.05127775;229.99999153;-0.00000896;3283.20512619;4202.17948711;3813.58974269;4301.53846168;4563.46153916;4301.53846168;4173.71794858;4139.48717928
4139.74358954;4172.30769217;4830.12820638;4237.82051282;3547.94871649;2205.38461108;-0.00000896;-0.00000896;3253.58974151;4174.74358961;4142.94871774;4299.61538476;4792.94871913;4300.76923091;4174.10256397;4139.48717928
4139.23076903;4172.69230756;4665.89743680;4236.66666667;3617.56410125;2204.87179057;229.99999153;-0.00000896;3251.02563894;4173.46153833;3939.61538399;4301.66666681;4634.35897520;4301.79487194;4174.10256397;4139.48717928
4139.10256390;4172.30769217;4733.46153951;4236.66666667;3450.64102398;2199.48717518;-0.00000896;-0.00000896;3252.56410048;4203.84615378;3811.53846064;4302.82051296;4695.89743687;4301.79487194;4174.10256397;4139.48717928
4139.48717928;4172.94871781;4961.53846307;4235.89743590;3683.58974241;2174.23076486;229.99999153;-0.00000896;3254.23076715;4174.99999986;3876.02564027;4301.79487194;4563.46153916;4300.89743604;4174.23076910;4139.48717928
4139.74358954;4172.94871781;4766.66666778;4237.69230770;3481.79487020;2173.58973922;-0.00000896;-0.00000896;3256.28204920;4206.02564096;3906.66666598;4299.61538476;4766.53846265;4302.17948732;4174.23076910;4139.48717928
4140.12820492;4173.71794858;4830.12820638;4239.35897436;3650.76922952;2201.41025211;229.99999153;-0.00000896;3254.99999792;4202.69230763;3938.71794810;4302.17948732;4629.74359058;4302.43589758;4174.10256397;4139.48717928
4139.99999980;4173.33333320;4926.53846300;4239.48717949;3349.74358787;2205.89743159;-0.00000896;-0.00000896;3253.58974151;4202.17948711;3910.76923008;4300.89743604;4570.12820583;4302.30769245;4174.23076910;4139.48717928
4140.89743569;4201.02564096;4793.97436016;4236.53846154;3546.53846008;2232.56409833;229.99999153;-0.00000896;3252.82051074;4204.99999993;3908.46153777;4301.79487194;4668.46153937;4301.28205142;4173.97435884;4139.48717928
4140.89743569;4176.28205115;4863.58974491;4237.17948718;3512.17948565;2207.05127775;-0.00000896;-0.00000896;3253.20512612;4203.97435891;3807.69230679;4302.17948732;4764.61538573;4302.56410271;4201.02564096;4139.48717928
4143.07692287;4175.51282038;4957.94871948;4236.28205129;3716.53846043;2203.46153416;229.99999153;-0.00000896;3254.10256202;4202.82051275;3811.79487090;4301.92307707;4597.82051359;4301.15384630;4174.87179474;4139.48717928
4142.56410236;4174.74358961;4796.92307811;4236.41025641;3416.28204955;2203.71794441;-0.00000896;-0.00000896;3254.99999792;4205.64102558;3944.23076861;4300.89743604;4661.02564193;4302.17948732;4173.84615371;4139.48717928
4143.07692287;4174.35897422;4860.00000132;4237.94871795;3580.76922938;2203.71794441;229.99999153;-0.00000896;3255.25640818;4233.97435898;3939.99999938;4300.38461553;4668.20512911;4301.28205142;4174.99999986;4139.48717928
4169.10256397;4175.12820499;4763.71794983;4238.33333334;3518.07692155;2233.71794448;-0.00000896;-0.00000896;3251.92307484;4207.69230763;3780.89743493;4302.69230784;4499.61538518;4301.79487194;4174.10256397;4172.30769217
4169.35897422;4175.38461525;4959.10256564;4239.87179488;3447.17948552;2234.87179064;229.99999153;-0.00000896;3223.20512605;4206.02564096;3911.28205059;4300.25641040;4766.28205240;4301.15384630;4174.23076910;4172.30769217
4171.41025628;4176.15384602;4927.56410403;4238.71794872;3713.97435787;2204.48717518;-0.00000896;-0.00000896;3224.48717734;4205.64102558;3876.15384539;4302.05128219;4667.94871886;4301.15384630;4174.87179474;4172.30769217
4171.66666653;4201.79487173;4761.92307804;4237.05128206;3446.79487013;2203.71794441;72.30768349;-0.00000896;3250.12820305;4207.43589737;3847.82051199;4302.30769245;4600.64102641;4269.74358982;4173.71794858;4172.30769217
4172.05128192;4175.89743576;4729.10256515;4236.92307693;3583.20512682;2202.30768800;-0.00000896;-0.00000896;3222.56410041;4206.92307686;3938.46153784;4301.66666681;4501.02564159;4301.02564117;4174.61538448;4172.30769217
4172.69230756;4175.76923063;4890.89743729;4236.41025641;3481.79487020;2204.23076493;229.99999153;-0.00000896;3223.58974144;4237.43589744;3908.97435828;4299.74358989;4797.43589862;4301.53846168;4174.74358961;4172.30769217
4173.84615371;4175.51282038;5026.15384783;4235.64102564;3613.33333202;2204.48717518;229.99999153;-0.00000896;3221.79486964;4208.58974352;3744.61538358;4300.25641040;4697.43589841;4301.66666681;4174.23076910;4172.30769217
4176.02564089;4175.76923063;4956.79487333;4236.41025641;3581.79487041;2202.69230339;229.99999153;-0.00000896;3221.92307477;4238.33333334;4108.46153819;4300.25641040;4731.28205233;4302.56410271;4173.84615371;4172.30769217
4201.92307686;4176.28205115;4667.17948809;4235.64102564;3386.92307512;2200.76922646;229.99999153;-0.00000896;3222.69230554;4237.82051282;3813.46153756;4273.84615392;4727.94871899;4301.28205142;4174.48717935;4205.12820506
4202.69230763;4201.15384609;4958.07692461;4235.25641026;3580.38461400;2203.20512390;-0.00000896;-0.00000896;3250.12820305;4207.17948711;3973.33333278;4300.51282066;4532.56410319;4301.92307707;4173.97435884;4205.12820506
4203.84615378;4175.89743576;4828.20512946;4236.15384616;3581.79487041;2202.43589313;-0.00000896;-0.00000896;3224.48717734;4202.94871788;3710.38461428;4304.10256425;4666.15384706;4300.25641040;4173.20512807;4205.12820506
4203.71794865;4201.15384609;4897.43589883;4234.61538462;3612.82051150;2204.23076493;-0.00000896;-0.00000896;3252.69230561;4206.28205122;4107.56410229;4274.74358982;4929.74359121;4300.00000014;4174.35897422;4205.12820506
4204.61538455;4201.79487173;4794.23077042;4235.00000000;3518.07692155;2173.97435460;-0.00000896;-0.00000896;3253.46153638;4206.02564096;3880.76923001;4301.79487194;4598.20512897;4300.64102578;4174.99999986;4205.12820506
4203.71794865;4201.41025634;4956.15384769;4235.64102564;3577.69230631;2201.66666236;-0.00000896;-0.00000896;3255.25640818;4207.69230763;3942.30769169;4299.74358989;4729.74359079;4301.28205142;4174.23076910;4205.12820506
4202.05128199;4175.76923063;4760.00000112;4236.66666667;3413.46153673;2203.71794441;-0.00000896;-0.00000896;3255.12820305;4206.15384609;3742.17948614;4301.41025655;4436.53846196;4301.28205142;4174.48717935;4205.12820506
4202.43589737;4175.76923063;5025.12820680;4236.92307693;3680.25640908;2206.41025211;-0.00000896;-0.00000896;3251.41025433;4206.79487173;3912.17948649;4299.87179501;4831.53846279;4301.66666681;4174.48717935;4205.12820506
4202.56410250;4201.15384609;4696.02564200;4235.25641026;3582.05128067;2206.02563672;-0.00000896;-0.00000896;3250.12820305;4202.17948711;3748.33333229;4300.25641040;4631.53846238;4301.53846168;4174.23076910;4205.12820506
4202.69230763;4201.28205122;4831.15384741;4235.76923077;3611.53846022;2206.53845723;-0.00000896;-0.00000896;3251.02563894;4203.58974352;3877.43589668;4304.23076937;4562.17948788;4301.41025655;4174.48717935;4205.12820506
4202.82051275;4201.02564096;4865.00000132;4236.15384616;3611.92307561;2203.97435467;-0.00000896;-0.00000896;3252.56410048;4204.74358968;3909.87179418;4300.38461553;4600.76923154;4299.48717963;4174.23076910;4205.12820506
4204.35897429;4202.56410250;4956.66666820;4236.02564103;3383.58974179;2203.07691877;-0.00000896;-0.00000896;3253.71794664;4207.43589737;3810.89743500;4302.30769245;4731.79487284;4301.79487194;4174.61538448;4205.12820506
4204.23076917;4201.92307686;4760.51282163;4236.66666667;3713.97435787;2206.66666236;-0.00000896;-0.00000896;3254.10256202;4205.12820506;3746.79487076;4301.15384630;4595.00000077;4301.28205142;4174.35897422;4205.12820506
4203.58974352;4201.66666660;4857.69230902;4237.17948718;3451.66666500;2205.38461108;-0.00000896;-0.00000896;3251.92307484;4202.30769224;4236.66666667;4299.74358989;4734.23077028;4302.82051296;4172.43589730;4205.12820506
4203.71794865;4201.92307686;4726.92307797;4236.41025641;3518.97435745;2206.66666236;-0.00000896;-0.00000896;3252.17948510;4203.07692301;3945.89743528;4301.53846168;4629.87179571;4300.51282066;4174.48717935;4205.12820506
4203.33333327;4176.28205115;4890.38461678;4237.05128206;3511.79487027;2204.61538031;-0.00000896;-0.00000896;3250.64102356;4173.97435884;3976.28205073;4300.89743604;4668.07692398;4301.15384630;4174.23076910;4205.12820506
4203.84615378;4201.53846147;4896.53846293;4235.12820513;3451.53845987;2204.10255980;-0.00000896;-0.00000896;3250.64102356;4202.69230763;3776.53846057;4303.20512835;4700.89743687;4302.30769245;4173.84615371;4205.12820506
4203.07692301;4201.66666660;4958.33333487;4236.02564103;3649.35897311;2234.23076500;-0.00000896;-0.00000896;3250.76922869;4203.71794865;3874.87179411;4302.17948732;4891.15384755;4302.17948732;4172.94871781;4205.12820506
4205.12820506;4202.30769224;4796.92307811;4235.38461539;3578.84615246;2205.25640595;-0.00000896;-0.00000896;3251.41025433;4205.51282045;3873.58974283;4301.15384630;4503.58974415;4301.53846168;4174.35897422;4205.12820506
4204.48717942;4201.02564096;4761.92307804;4235.76923077;3512.05128053;2171.41025204;-0.00000896;-0.00000896;3251.66666459;4203.07692301;3780.64102467;4300.76923091;4634.61538545;4301.41025655;4175.12820499;4205.12820506
4204.74358968;4201.79487173;4923.97436044;4235.64102564;3518.20512668;2205.89743159;-0.00000896;-0.00000896;3249.35897228;4205.89743583;3814.48717859;4302.56410271;4532.94871858;4300.38461553;4174.61538448;4205.12820506
4205.51282045;4202.17948711;4891.02564242;4237.56410257;3513.46153694;2201.92307262;-0.00000896;-0.00000896;3250.89743382;4204.10256404;3877.30769155;4300.25641040;4831.02564228;4301.53846168;4173.84615371;4205.12820506
4205.89743583;4202.43589737;4766.02564214;4236.28205129;3716.66666556;2200.25640595;-0.00000896;-0.00000896;3252.43589536;4176.02564089;3844.99999917;4300.00000014;4628.07692391;4301.02564117;4174.23076910;4205.12820506
4205.64102558;4201.02564096;4799.35897554;4236.92307693;3515.51281899;2199.48717518;-0.00000896;-0.00000896;3252.30769023;4204.87179481;3944.10256348;4300.51282066;4660.89743680;4302.30769245;4173.71794858;4205.12820506
4204.23076917;4201.66666660;4766.02564214;4236.66666667;3709.87179376;2203.84614954;-0.00000896;-0.00000896;3250.12820305;4207.05128199;3874.23076847;4302.56410271;4628.97435981;4299.87179501;4174.99999986;4205.12820506
4205.76923070;4202.17948711;4666.53846245;4235.51282052;3354.10256223;2202.17948288;229.99999153;-0.00000896;3223.33333118;4207.43589737;3683.58974241;4302.05128219;4661.66666757;4301.28205142;4174.48717935;4205.12820506
4206.53846147;4202.43589737;5022.30769398;4237.43589744;3616.92307561;2202.94871364;-0.00000896;-0.00000896;3222.69230554;4208.84615378;3682.17948600;4302.30769245;4404.74359009;4302.94871809;4174.10256397;4205.12820506
4207.17948711;4201.66666660;4860.12820645;4237.69230770;3446.41025475;2205.89743159;-0.00000896;-0.00000896;3221.66666452;4235.00000000;3907.94871726;4302.05128219;4597.17948795;4301.66666681;4174.35897422;4205.12820506
4208.46153840;4202.30769224;4766.28205240;4237.56410257;3647.82051157;2232.56409833;100.51281176;-0.00000896;3222.30769016;4203.46153840;3943.71794810;4302.17948732;4563.33333403;4300.76923091;4173.46153833;4205.12820506
4234.48717949;4201.28205122;4662.05128296;4236.79487180;3419.87179314;2206.02563672;229.99999153;-0.00000896;3219.35897221;4202.94871788;3744.99999896;4300.89743604;4630.00000084;4302.05128219;4173.84615371;4237.94871795
4234.23076923;4202.30769224;4962.94871948;4236.41025641;3546.66666521;2205.25640595;229.99999153;-0.00000896;3222.17948503;4205.25641019;3744.10256306;4299.74358989;4695.25641123;4300.12820527;4172.94871781;4237.94871795
4235.51282052;4202.17948711;4929.35897582;4236.15384616;3486.92307533;2205.51281621;229.99999153;-0.00000896;3224.23076708;4202.56410250;3913.20512751;4300.76923091;4764.87179599;4301.66666681;4173.84615371;4237.94871795
4237.17948718;4202.56410250;4995.12820673;4237.17948718;3612.69230638;2206.41025211;229.99999153;-0.00000896;3252.43589536;4201.66666660;3876.41025565;4300.89743604;4694.48718046;4301.79487194;4173.97435884;4237.94871795
4238.20512821;4202.30769224;4765.00000112;4237.05128206;3550.38461393;2233.97435474;229.99999153;-0.00000896;3254.74358766;4202.17948711;3912.17948649;4301.28205142;4465.25641075;4300.76923091;4174.35897422;4237.94871795
4237.56410257;4203.84615378;4826.15384741;4239.23076923;3577.82051143;2235.38461115;229.99999153;-0.00000896;3250.64102356;4202.43589737;3909.48717880;4301.53846168;4660.51282142;4301.92307707;4174.10256397;4237.94871795
4239.10256411;4205.12820506;4832.17948843;4241.41025641;3519.35897283;2233.20512397;229.99999153;-0.00000896;3223.71794657;4201.53846147;3681.41025523;4274.74358982;4731.92307797;4301.66666681;4171.53846140;4237.94871795
4266.66666674;4205.89743583;5028.58974526;4266.79487187;3677.17948600;2233.07691884;229.99999153;-0.00000896;3220.25640811;4205.51282045;4011.15384567;4300.64102578;4601.66666743;4302.94871809;4174.23076910;4270.76923084
4271.15384623;4208.07692301;4732.05128310;4270.25641033;3546.53846008;2231.79486756;229.99999153;-0.00000896;3218.71794657;4203.84615378;3808.58974269;4301.02564117;4694.87179585;4300.64102578;4174.10256397;4270.76923084
4300.38461553;4235.00000000;4827.69230895;4272.17948725;3680.25640908;2234.87179064;229.99999153;-0.00000896;3218.33333118;4202.56410250;4007.94871747;4300.12820527;4630.76923161;4302.05128219;4174.23076910;4303.58974373
4306.02564117;4234.87179488;4697.43589841;4273.97435905;3446.66666500;2265.12820096;229.99999153;-0.00000896;3217.05127990;4171.41025628;3710.76922966;4274.74358982;4532.69230832;4302.17948732;4174.10256397;4303.58974373
4333.97435919;4235.64102564;5024.23077090;4272.43589751;3681.92307575;2267.05127789;229.99999153;-0.00000896;3187.17948496;4171.15384602;3977.30769176;4302.05128219;4861.02564235;4301.41025655;4173.97435884;4336.41025662
4336.53846175;4237.05128206;4731.02564207;4268.84615392;3551.53846008;2235.64102141;229.99999153;-0.00000896;3187.30769009;4173.58974345;3777.82051185;4301.79487194;4628.20512904;4301.53846168;4174.23076910;4336.41025662
4338.20512842;4238.33333334;4799.74359093;4268.58974366;3545.12820367;2205.89743159;229.99999153;-0.00000896;3189.74358752;4202.94871788;3909.61538392;4299.61538476;4434.74359016;4302.30769245;4173.97435884;4336.41025662
4339.48717970;4238.33333334;4759.35897547;4268.71794879;3548.97435752;2205.25640595;229.99999153;-0.00000896;3189.23076701;4175.89743576;3974.87179432;4301.53846168;4563.58974429;4302.82051296;4173.84615371;4336.41025662
4365.38461567;4237.43589744;4890.51282191;4268.07692315;3447.94871628;2203.46153416;229.99999153;-0.00000896;3190.25640804;4172.05128192;3873.71794796;4302.30769245;4763.97436009;4303.84615399;4174.61538448;4369.23076951
4339.87179508;4237.05128206;4896.28205268;4268.07692315;3549.61538316;2206.02563672;229.99999153;-0.00000896;3217.17948503;4175.12820499;4039.74358933;4300.76923091;4498.71794928;4304.74358989;4174.48717935;4336.41025662
4339.35897457;4236.41025641;4962.94871948;4266.79487187;3480.89743430;2206.02563672;229.99999153;-0.00000896;3217.43589529;4202.05128199;3808.46153756;4300.25641040;4761.53846265;4301.41025655;4174.61538448;4336.41025662
4338.33333355;4236.53846154;4697.05128303;4266.92307700;3551.66666521;2235.38461115;229.99999153;-0.00000896;3217.05127990;4169.61538448;4006.15384567;4299.74358989;4565.25641096;4303.46153860;4173.71794858;4336.41025662
4338.33333355;4236.02564103;4795.64102683;4241.28205129;3584.10256272;2237.43589320;229.99999153;-0.00000896;3190.76922855;4168.20512807;3906.28205059;4301.15384630;4696.41025739;4304.23076937;4173.71794858;4336.41025662
4336.92307714;4236.41025641;4864.35897568;4238.84615385;3415.89743416;2235.51281628;229.99999153;-0.00000896;3189.61538240;4169.35897422;3709.10256299;4300.51282066;4633.58974443;4303.84615399;4173.46153833;4336.41025662
4336.66666688;4237.56410257;4993.20512981;4239.48717949;3714.61538351;2232.43589320;229.99999153;-0.00000896;3217.05127990;4170.25641012;3876.41025565;4274.48717956;4799.87179606;4303.33333348;4173.71794858;4336.41025662
4334.48717970;4237.69230770;4829.61538587;4239.48717949;3549.48717803;2232.17948294;229.99999153;-0.00000896;3219.61538247;4170.76923063;4043.46153805;4274.48717956;4634.61538545;4302.56410271;4173.58974345;4336.41025662
4307.56410271;4236.66666667;4831.02564228;4239.10256411;3485.25640866;2234.10255987;229.99999153;-0.00000896;3220.12820298;4168.20512807;3843.97435814;4303.46153860;4792.69230888;4303.20512835;4174.99999986;4303.58974373
4307.05128219;4235.76923077;4923.58974505;4239.35897436;3649.61538337;2235.12820089;229.99999153;-0.00000896;3222.43589529;4168.84615371;3877.82051206;4300.89743604;4501.66666723;4302.94871809;4173.33333320;4303.58974373
4305.00000014;4236.15384616;4928.97436044;4240.38461539;3386.02563922;2238.33332910;229.99999153;-0.00000896;3217.94871580;4141.66666646;3941.28205066;4273.97435905;4861.79487312;4303.20512835;4173.46153833;4303.58974373
4303.71794886;4236.02564103;4957.30769384;4238.97435898;3708.71794761;2237.17948294;229.99999153;-0.00000896;3221.41025426;4168.20512807;3913.07692239;4301.28205142;4733.46153951;4303.84615399;4173.33333320;4303.58974373
4300.38461553;4235.12820513;4859.61538594;4239.35897436;3417.82051109;2232.69230346;229.99999153;-0.00000896;3223.46153631;4171.79487166;3845.51281968;4301.79487194;4632.82051366;4303.07692322;4173.58974345;4303.58974373
4272.30769238;4234.48717949;4734.23077028;4239.35897436;3677.43589626;2237.56409833;229.99999153;-0.00000896;3249.87179279;4169.99999986;3847.94871712;4300.89743604;4470.12820562;4303.33333348;4172.56410243;4270.76923084
4267.30769238;4208.46153840;4760.89743701;4238.84615385;3316.15384421;2207.05127775;229.99999153;-0.00000896;3249.23076715;4173.58974345;3747.30769127;4300.89743604;4763.71794983;4303.46153860;4173.84615371;4270.76923084
4237.05128206;4206.28205122;4767.05128317;4239.48717949;3748.20512717;2206.79486749;229.99999153;-0.00000896;3223.46153631;4143.46153826;3714.48717838;4301.92307707;4599.35897513;4302.69230784;4173.46153833;4237.94871795
4208.20512814;4203.97435891;4860.38461671;4238.07692308;3414.48717775;2204.48717518;229.99999153;-0.00000896;3221.41025426;4174.61538448;4137.30769210;4274.74358982;4761.53846265;4303.20512835;4173.71794858;4205.12820506
4204.87179481;4203.20512814;4798.58974477;4239.74358975;3513.58974206;2238.33332910;229.99999153;-0.00000896;3217.05127990;4143.46153826;3844.99999917;4299.87179501;4633.84615468;4303.71794886;4173.07692294;4205.12820506
4201.53846147;4203.84615378;4896.53846293;4239.87179488;3447.94871628;2237.56409833;66.53845272;-0.00000896;3188.07692086;4174.48717935;4039.99999959;4299.74358989;4629.48718032;4304.61538476;4173.71794858;4205.12820506
4174.23076910;4201.79487173;4893.20512960;4238.71794872;3513.84615232;2233.46153423;-0.00000896;-0.00000896;3187.56410034;4172.17948704;3745.25640922;4300.00000014;4597.17948795;4301.92307707;4173.20512807;4172.30769217
4172.94871781;4175.51282038;4731.79487284;4238.58974359;3709.23076812;2205.12820082;229.99999153;-0.00000896;3186.28204906;4201.28205122;3941.28205066;4274.10256418;4628.20512904;4303.71794886;4173.46153833;4172.30769217
4172.30769217;4174.74358961;4927.05128351;4238.07692308;3515.25640873;2232.30768807;-0.00000896;-0.00000896;3185.25640804;4171.66666653;3812.82051192;4301.41025655;4564.87179557;4304.74358989;4173.71794858;4172.30769217
4171.53846140;4175.12820499;4928.71795018;4237.43589744;3676.28205010;2236.92307269;-0.00000896;-0.00000896;3158.71794643;4168.58974345;4076.15384581;4274.61538469;4728.33333438;4304.87179501;4173.58974345;4172.30769217
4171.92307679;4174.74358961;4694.10256508;4238.07692308;3355.64102377;2236.41025218;-0.00000896;-0.00000896;3184.48717727;4174.23076910;3840.38461455;4273.58974366;4766.53846265;4304.48717963;4173.58974345;4172.30769217
4171.92307679;4175.64102551;4995.12820673;4236.66666667;3614.74358843;2234.74358551;-0.00000896;-0.00000896;3184.99999778;4172.56410243;4042.56410215;4273.46153853;4694.61538559;4303.71794886;4173.46153833;4172.30769217
4169.99999986;4175.12820499;4928.97436044;4237.05128206;3547.30769085;2233.84614961;-0.00000896;-0.00000896;3186.41025419;4172.30769217;3682.05128087;4274.61538469;4567.82051352;4303.07692322;4173.58974345;4172.30769217
4168.46153833;4173.71794858;4826.66666792;4237.82051282;3550.51281906;2234.74358551;-0.00000896;-0.00000896;3186.53845932;4172.82051269;3874.99999924;4273.71794879;4729.10256515;4305.76923091;4174.61538448;4172.30769217
4142.05128185;4173.33333320;4798.97436016;4236.41025641;3583.84615246;2239.61538038;-0.00000896;-0.00000896;3185.38461316;4173.97435884;3846.53846071;4300.00000014;4499.23076979;4303.71794886;4173.58974345;4139.48717928
4141.66666646;4173.97435884;4633.33333417;4236.79487180;3316.28204934;2265.12820096;-0.00000896;-0.00000896;3184.48717727;4202.17948711;3742.30769127;4299.87179501;4760.25641137;4305.00000014;4173.46153833;4139.48717928
4140.25641005;4174.10256397;5025.00000167;4236.28205129;3679.61538344;2266.28204712;-0.00000896;-0.00000896;3184.35897214;4172.94871781;3743.71794768;4300.12820527;4601.92307769;4305.25641040;4173.33333320;4139.48717928
4140.38461518;4174.23076910;4924.87179633;4236.15384616;3387.82051102;2265.76922660;-0.00000896;-0.00000896;3183.71794650;4173.71794858;3941.15384553;4299.48717963;4795.00000119;4305.00000014;4175.25641012;4139.48717928
4140.38461518;4174.99999986;4793.20512939;4237.05128206;3748.20512717;2266.41025224;-0.00000896;-0.00000896;3156.92307463;4172.05128192;3939.10256348;4299.48717963;4564.87179557;4303.33333348;4173.58974345;4139.48717928
4140.76923056;4175.12820499;4731.53846258;4236.28205129;3321.41025447;2237.17948294;-0.00000896;-0.00000896;3158.20512592;4170.64102551;3714.99999889;4302.69230784;4463.71794921;4304.74358989;4171.53846140;4139.48717928
4141.02564082;4174.10256397;4924.48718095;4235.38461539;3643.84615260;2236.92307269;-0.00000896;-0.00000896;3157.17948489;4202.69230763;3848.07692225;4302.05128219;4765.89743701;4304.61538476;4173.46153833;4139.48717928
4142.05128185;4174.61538448;4897.82051421;4236.53846154;3415.38461365;2264.99999583;-0.00000896;-0.00000896;3156.02563874;4203.46153840;3912.43589674;4274.10256418;4760.12820624;4303.33333348;4173.71794858;4139.48717928
4142.17948697;4174.74358961;4924.48718095;4235.76923077;3774.74358877;2237.05127782;-0.00000896;-0.00000896;3158.33333104;4176.02564089;3874.87179411;4300.25641040;4634.74359058;4304.87179501;4173.97435884;4139.48717928
4141.79487159;4173.97435884;4765.64102676;4235.00000000;3483.71794712;2237.05127782;-0.00000896;-0.00000896;3183.97435675;4175.51282038;4004.48717900;4301.15384630;4564.48718019;4304.23076937;4173.46153833;4139.48717928
4141.28205108;4173.71794858;4892.82051421;4234.61538462;3583.84615246;2236.02563679;-0.00000896;-0.00000896;3184.61538240;4176.02564089;3879.23076847;4300.25641040;4695.76923175;4304.74358989;4174.61538448;4139.48717928
4141.41025621;4173.07692294;4963.97436051;4234.35897436;3481.28204969;2236.28204705;-0.00000896;-0.00000896;3187.17948496;4201.02564096;3748.33333229;4273.07692315;4601.15384692;4305.64102578;4173.84615371;4139.48717928
4140.25641005;4171.92307679;4960.25641179;4236.41025641;3549.87179342;2232.94871371;-0.00000896;-0.00000896;3188.20512599;4206.66666660;3974.99999945;4273.97435905;4830.00000125;4303.33333348;4174.10256397;4139.48717928
4139.10256390;4171.15384602;4794.23077042;4235.25641026;3650.64102439;2239.35897012;-0.00000896;-0.00000896;3190.25640804;4205.64102558;3879.74358898;4299.74358989;4667.94871886;4304.35897450;4173.58974345;4139.48717928
4137.30769210;4170.51282038;4897.94871934;4236.66666667;3582.56410118;2237.17948294;-0.00000896;-0.00000896;3188.97435675;4203.46153840;3943.07692246;4274.61538469;4699.74359072;4302.82051296;4173.46153833;4139.48717928
4135.51282031;4170.51282038;4634.35897520;4236.79487180;3519.10256258;2238.97435474;-0.00000896;-0.00000896;3187.30769009;4203.07692301;3780.51281954;4299.48717963;4431.02564145;4305.89743604;4173.97435884;4139.48717928
4110.12820485;4170.12820499;5026.92307859;4235.64102564;3585.38461400;2239.61538038;-0.00000896;-0.00000896;3185.64102342;4202.43589737;3908.71794803;4300.89743604;4832.56410382;4303.71794886;4174.61538448;4106.66666639
4109.99999973;4169.99999986;4831.28205254;4235.89743590;3579.87179349;2236.66666243;-0.00000896;-0.00000896;3184.35897214;4175.25641012;3781.66666570;4300.12820527;4662.17948809;4304.23076937;4173.84615371;4106.66666639
4108.46153819;4169.48717935;4831.79487305;4235.25641026;3643.33333209;2237.30768807;-0.00000896;-0.00000896;3186.53845932;4203.84615378;4038.33333292;4274.23076930;4632.56410340;4302.05128219;4173.58974345;4106.66666639
4107.43589716;4169.74358961;4797.94871913;4233.97435898;3387.05128025;2233.46153423;229.99999153;-0.00000896;3188.97435675;4205.12820506;3909.61538392;4300.12820527;4759.48718060;4302.69230784;4174.10256397;4106.66666639
4106.02564075;4168.58974345;5089.23077104;4234.48717949;3485.76922917;2236.28204705;229.99999153;-0.00000896;3216.53845939;4203.20512814;3878.20512744;4274.48717956;4663.58974450;4301.02564117;4174.23076910;4106.66666639
4103.97435870;4168.97435884;4798.71794990;4234.87179488;3451.41025475;2236.15384192;229.99999153;-0.00000896;3219.99999785;4201.92307686;3747.94871691;4299.87179501;4761.92307804;4303.97435912;4176.02564089;4106.66666639
4077.17948684;4142.56410236;4930.89743736;4234.61538462;3677.17948600;2235.64102141;229.99999153;-0.00000896;3223.58974144;4175.38461525;3875.51281975;4274.74358982;4761.41025753;4303.71794886;4174.35897422;4073.84615350
4072.82051248;4143.20512800;4701.28205226;4236.41025641;3479.48717789;2237.82050859;34.74358085;-0.00000896;3250.64102356;4172.69230756;3847.69230686;4299.87179501;4501.92307748;4301.79487194;4173.33333320;4073.84615350
4043.58974318;4142.17948697;4764.48718060;4237.05128206;3418.33333160;2237.17948294;-0.00000896;-0.00000896;3224.23076708;4175.25641012;3909.10256341;4300.25641040;4595.64102641;4304.87179501;4174.61538448;4041.02564061
4040.51282010;4142.43589723;4794.48718067;4238.33333334;3546.66666521;2266.92307276;229.99999153;-0.00000896;3189.87179265;4175.64102551;3809.99999910;4300.76923091;4632.30769315;4304.35897450;4174.23076910;4041.02564061
4038.71794830;4169.23076910;4859.74359107;4237.56410257;3483.97435738;2267.94871378;-0.00000896;-0.00000896;3185.76922855;4203.07692301;4007.94871747;4300.00000014;4860.89743722;4303.71794886;4174.23076910;4041.02564061
4039.10256369;4169.35897422;4701.15384713;4236.15384616;3746.28205024;2267.69230353;229.99999153;-0.00000896;3184.99999778;4206.66666660;3873.71794796;4301.02564117;4600.12820590;4303.71794886;4173.20512807;4041.02564061
4039.74358933;4170.12820499;4830.51282177;4236.15384616;3380.76922897;2266.92307276;-0.00000896;-0.00000896;3155.51281822;4202.69230763;3779.23076826;4299.48717963;4695.64102662;4304.35897450;4174.35897422;4041.02564061
4038.84615343;4170.12820499;4892.05128344;4235.38461539;3584.10256272;2237.69230346;229.99999153;-0.00000896;3154.48717720;4204.74358968;3873.71794796;4273.07692315;4465.12820562;4304.48717963;4174.99999986;4041.02564061
4040.76923036;4169.74358961;4893.46153986;4209.10256404;3480.25640866;2236.79486756;-0.00000896;-0.00000896;3152.17948489;4237.56410257;3779.10256313;4274.48717956;4830.51282177;4301.53846168;4174.87179474;4041.02564061
4042.56410215;4169.61538448;4895.38461678;4208.97435891;3618.20512689;2266.02563686;229.99999153;-0.00000896;3125.51281815;4208.07692301;3811.92307602;4274.35897443;4660.76923168;4304.48717963;4176.15384602;4041.02564061
4071.28205094;4170.89743576;4825.76923202;4207.82051275;3646.41025516;2266.66666250;-0.00000896;-0.00000896;3151.66666438;4234.35897436;4172.17948704;4300.00000014;4761.79487291;4303.97435912;4173.71794858;4073.84615350
4073.71794837;4172.30769217;4763.84615496;4207.30769224;3485.89743430;2238.20512397;229.99999153;-0.00000896;3153.46153617;4238.58974359;3812.17948628;4302.05128219;4730.25641130;4303.07692322;4174.99999986;4073.84615350
4076.53846119;4171.41025628;4929.48718095;4207.30769224;3448.20512654;2233.46153423;-0.00000896;-0.00000896;3154.10256181;4234.61538462;3909.87179418;4300.64102578;4762.94871906;4303.84615399;4174.99999986;4073.84615350
4104.48717921;4172.43589730;4956.66666820;4205.76923070;3682.05128087;2238.07691884;229.99999153;-0.00000896;3151.02563874;4239.87179488;3746.15384512;4273.97435905;4469.87179536;4303.07692322;4175.12820499;4106.66666639
4107.56410229;4173.46153833;4890.89743729;4207.05128199;3546.79487034;2237.05127782;-0.00000896;-0.00000896;3126.02563867;4267.56410264;3877.17948642;4300.00000014;4799.10256529;4303.33333348;4174.61538448;4106.66666639
4138.33333313;4173.46153833;4860.12820645;4207.05128199;3453.07692141;2237.30768807;229.99999153;-0.00000896;3150.89743361;4240.25641026;4076.02564068;4300.00000014;4595.51282128;4303.58974373;4174.74358961;4139.48717928
4142.05128185;4174.74358961;4824.87179613;4208.07692301;3513.46153694;2239.61538038;-0.00000896;-0.00000896;3124.74358738;4240.12820513;3912.82051213;4301.53846168;4568.97435967;4302.17948732;4174.10256397;4139.48717928
4169.23076910;4174.74358961;4896.53846293;4208.71794865;3453.46153680;2239.74358551;229.99999153;-0.00000896;3151.66666438;4241.66666667;3809.99999910;4299.87179501;4568.07692378;4303.46153860;4174.99999986;4172.30769217
4173.58974345;4175.12820499;4925.12820659;4208.07692301;3612.69230638;2237.94871371;-0.00000896;-0.00000896;3153.58974130;4241.41025641;3972.82051227;4273.58974366;4828.84615510;4302.30769245;4175.64102551;4172.30769217
4202.94871788;4176.28205115;4828.71794997;4208.58974352;3582.43589605;2233.97435474;229.99999153;-0.00000896;3190.38461316;4240.12820513;3845.64102481;4300.00000014;4664.48718039;4302.43589758;4174.99999986;4205.12820506
4205.51282045;4175.89743576;4765.64102676;4209.10256404;3518.33333181;2264.99999583;-0.00000896;-0.00000896;3188.33333111;4239.48717949;3874.74358898;4300.38461553;4630.00000084;4303.46153860;4175.64102551;4205.12820506
4206.79487173;4174.74358961;4859.23077055;4234.61538462;3644.87179362;2265.12820096;229.99999153;-0.00000896;3191.28204906;4236.02564103;3876.28205052;4300.51282066;4693.46153944;4302.94871809;4202.30769224;4205.12820506
4206.41025634;4175.89743576;4798.07692426;4234.35897436;3382.43589563;2267.82050866;-0.00000896;-0.00000896;3217.05127990;4236.79487180;3679.35897318;4299.74358989;4799.74359093;4301.92307707;4175.12820499;4205.12820506
4206.15384609;4175.76923063;4930.89743736;4236.15384616;3618.33333202;2239.48717525;229.99999153;-0.00000896;3216.79486964;4208.33333327;3777.43589647;4274.10256418;4629.74359058;4304.48717963;4175.51282038;4205.12820506
4204.99999993;4202.82051275;4733.46153951;4234.87179488;3584.99999861;2266.41025224;-0.00000896;-0.00000896;3188.97435675;4236.79487180;4171.02564089;4300.51282066;4695.51282149;4302.82051296;4175.38461525;4205.12820506
4204.10256404;4202.69230763;4830.76923202;4236.28205129;3544.99999854;2266.02563686;229.99999153;-0.00000896;3185.38461316;4238.07692308;3874.74358898;4299.74358989;4631.15384699;4302.56410271;4174.74358961;4205.12820506
4203.84615378;4204.23076917;4897.69230909;4235.25641026;3354.99999813;2265.12820096;-0.00000896;-0.00000896;3184.74358752;4237.56410257;3973.07692252;4302.05128219;4634.74359058;4301.79487194;4174.74358961;4205.12820506
4204.87179481;4203.33333327;4990.51282211;4235.12820513;3577.43589605;2234.74358551;229.99999153;-0.00000896;3183.97435675;4238.58974359;3807.82051192;4301.66666681;4666.28205219;4301.79487194;4175.25641012;4205.12820506
4205.89743583;4203.20512814;4895.64102703;4235.12820513;3548.33333188;2236.15384192;-0.00000896;-0.00000896;3184.10256188;4240.00000000;3939.99999938;4274.35897443;4728.20512925;4301.66666681;4175.25641012;4205.12820506
4208.58974352;4203.33333327;4897.94871934;4234.35897436;3512.43589591;2237.30768807;229.99999153;-0.00000896;3154.87179258;4239.35897436;3941.66666605;4300.12820527;4699.10256508;4303.07692322;4172.56410243;4205.12820506
4209.10256404;4204.23076917;4798.71794990;4234.10256411;3482.43589584;2234.99999577;-0.00000896;-0.00000896;3154.61538233;4270.51282059;3844.61538379;4302.69230784;4529.23076986;4303.20512835;4175.12820499;4205.12820506
4236.92307693;4203.97435891;4960.25641179;4233.84615385;3419.23076750;2236.92307269;-0.00000896;-0.00000896;3154.99999771;4268.46153853;3812.30769141;4300.12820527;4825.12820638;4303.84615399;4175.38461525;4237.94871795
4238.71794872;4204.35897429;4926.53846300;4207.56410250;3614.61538330;2234.10255987;-0.00000896;-0.00000896;3155.89743361;4267.30769238;3877.56410180;4299.61538476;4733.58974464;4304.35897450;4175.51282038;4237.94871795
4239.74358975;4204.10256404;4926.15384762;4208.58974352;3578.33333195;2234.23076500;229.99999153;-0.00000896;3158.20512592;4240.00000000;3913.71794803;4300.00000014;4630.12820597;4303.20512835;4174.99999986;4237.94871795
4240.64102564;4202.69230763;4727.30769335;4208.07692301;3550.76922931;2234.87179064;229.99999153;-0.00000896;3158.33333104;4238.97435898;3943.46153784;4301.15384630;4566.15384685;4302.43589758;4172.94871781;4237.94871795
4267.17948725;4201.53846147;5027.05128372;4206.92307686;3549.48717803;2234.87179064;229.99999153;-0.00000896;3187.30769009;4240.51282052;3907.30769162;4302.30769245;4666.79487270;4305.64102578;4174.61538448;4270.76923084
4266.92307700;4201.53846147;5028.46154013;4208.33333327;3416.15384442;2233.71794448;229.99999153;-0.00000896;3189.10256188;4239.48717949;3873.20512744;4300.89743604;4660.76923168;4301.92307707;4175.51282038;4270.76923084
4241.41025641;4201.92307686;4896.79487319;4206.53846147;3614.87179356;2234.87179064;-0.00000896;-0.00000896;3188.97435675;4237.69230770;3978.71794817;4301.53846168;4568.58974429;4303.33333348;4175.12820499;4237.94871795
4240.51282052;4201.28205122;4762.30769342;4207.82051275;3446.28204962;2236.28204705;-0.00000896;-0.00000896;3188.84615163;4235.00000000;3781.53846057;4302.05128219;4700.64102662;4302.69230784;4202.30769224;4237.94871795
4240.89743590;4201.02564096;4990.89743750;4206.28205122;3617.17948586;2234.74358551;-0.00000896;-0.00000896;3188.97435675;4208.84615378;3910.51281982;4301.92307707;4765.64102676;4304.35897450;4201.02564096;4237.94871795
4240.89743590;4201.53846147;4831.15384741;4206.15384609;3582.82051143;2236.02563679;-0.00000896;-0.00000896;3189.10256188;4209.10256404;3741.53846050;4299.87179501;4660.76923168;4302.56410271;4174.99999986;4237.94871795
4240.12820513;4201.02564096;4925.00000146;4207.17948711;3584.48717810;2233.71794448;-0.00000896;-0.00000896;3189.10256188;4206.53846147;3847.30769148;4274.61538469;4668.58974450;4301.53846168;4175.64102551;4237.94871795
4240.76923077;4201.66666660;4892.94871934;4205.89743583;3582.82051143;2235.25640602;-0.00000896;-0.00000896;3190.64102342;4207.69230763;3943.46153784;4274.23076930;4531.92307755;4305.00000014;4174.87179474;4237.94871795
4241.53846154;4201.15384609;4831.92307818;4208.97435891;3549.23076778;2233.46153423;-0.00000896;-0.00000896;3191.15384393;4206.79487173;3810.38461449;4301.41025655;4765.25641137;4302.69230784;4173.58974345;4237.94871795
4266.92307700;4202.56410250;4955.89743743;4208.20512814;3485.51281892;2233.46153423;-0.00000896;-0.00000896;3191.41025419;4234.35897436;3913.58974290;4300.89743604;4733.97436002;4303.84615399;4174.74358961;4270.76923084
4267.94871802;4203.07692301;4893.84615524;4208.84615378;3448.33333167;2233.46153423;-0.00000896;-0.00000896;3191.28204906;4207.82051275;3977.69230714;4274.35897443;4794.74359093;4302.17948732;4174.74358961;4270.76923084
4268.33333341;4203.84615378;4793.07692426;4209.10256404;3615.38461407;2238.58973935;-0.00000896;-0.00000896;3217.69230554;4208.97435891;3880.89743514;4273.97435905;4403.84615420;4302.82051296;4175.25641012;4270.76923084
4266.92307700;4203.46153840;4766.41025753;4208.71794865;3350.51281864;2238.71794448;-0.00000896;-0.00000896;3216.41025426;4234.10256411;3941.66666605;4300.25641040;4629.10256494;4303.07692322;4174.48717935;4270.76923084
4241.92307693;4204.10256404;4928.84615531;4209.10256404;3650.38461414;2232.82050859;-0.00000896;-0.00000896;3190.38461316;4201.41025634;3811.79487090;4300.51282066;4627.82051366;4302.30769245;4174.35897422;4237.94871795
4267.30769238;4204.87179481;4892.17948857;4208.20512814;3482.94871635;2237.56409833;-0.00000896;-0.00000896;3189.48717727;4203.20512814;3946.28205066;4274.74358982;4696.53846252;4302.43589758;4174.87179474;4270.76923084
4268.58974366;4205.89743583;4759.23077035;4207.94871788;3780.12820416;2239.48717525;-0.00000896;-0.00000896;3186.15384393;4206.92307686;3942.43589681;4301.15384630;4729.23077028;4303.58974373;4174.10256397;4270.76923084
4268.71794879;4206.53846147;4832.05128331;4208.71794865;3351.28204941;2234.99999577;-0.00000896;-0.00000896;3190.76922855;4204.99999993;3812.56410166;4299.87179501;4634.48718032;4301.02564117;4174.74358961;4270.76923084
4268.46153853;4205.89743583;4890.51282191;4208.84615378;3680.76922959;2204.23076493;-0.00000896;-0.00000896;3219.48717734;4236.66666667;3945.76923015;4274.48717956;4699.35897534;4303.71794886;4173.97435884;4270.76923084
4268.71794879;4204.99999993;5022.05128372;4208.58974352;3322.69230575;2232.30768807;-0.00000896;-0.00000896;3218.58974144;4207.43589737;3714.74358864;4301.02564117;4731.53846258;4301.66666681;4174.61538448;4270.76923084
4267.56410264;4204.48717942;4733.97436002;4234.61538462;3683.58974241;2236.02563679;-0.00000896;-0.00000896;3191.28204906;4202.17948711;3973.33333278;4300.25641040;4601.28205205;4302.43589758;4174.87179474;4270.76923084
4267.94871802;4204.74358968;4860.89743722;4234.23076923;3485.51281892;2236.66666243;-0.00000896;-0.00000896;3188.20512599;4235.12820513;3848.07692225;4300.12820527;4764.23077035;4301.92307707;4174.48717935;4270.76923084
4267.69230777;4205.38461532;4957.82051435;4234.74358975;3583.07692169;2234.23076500;-0.00000896;-0.00000896;3188.07692086;4205.38461532;3979.10256355;4301.02564117;4664.23077014;4302.43589758;4175.12820499;4270.76923084
4267.82051289;4205.25641019;4831.66666792;4235.00000000;3519.87179335;2233.33332910;-0.00000896;-0.00000896;3189.61538240;4234.10256411;3813.71794782;4299.74358989;4628.20512904;4303.97435912;4174.10256397;4270.76923084
4241.92307693;4205.38461532;4929.23077069;4234.10256411;3414.48717775;2232.94871371;-0.00000896;-0.00000896;3188.84615163;4201.02564096;3939.35897374;4272.82051289;4897.17948857;4301.02564117;4201.79487173;4237.94871795
4241.28205129;4205.51282045;4864.10256543;4233.84615385;3681.02563985;2234.48717525;-0.00000896;-0.00000896;3189.10256188;4234.87179488;3944.23076861;4300.76923091;4726.79487284;4302.56410271;4174.23076910;4237.94871795
4266.66666674;4205.51282045;4864.10256543;4208.97435891;3514.74358822;2236.66666243;-0.00000896;-0.00000896;3188.33333111;4204.87179481;3879.35897360;4302.82051296;4698.71794969;4303.33333348;4176.15384602;4270.76923084
4241.28205129;4205.89743583;4762.56410368;4206.41025634;3578.20512682;2234.99999577;-0.00000896;-0.00000896;3189.74358752;4204.35897429;3940.38461476;4300.51282066;4537.05128268;4301.28205142;4174.48717935;4237.94871795
4241.28205129;4205.76923070;4892.82051421;4207.69230763;3449.61538295;2235.89743166;229.99999153;-0.00000896;3216.66666452;4176.15384602;3907.05128136;4274.74358982;4765.51282163;4302.94871809;4174.23076910;4237.94871795
4241.02564103;4206.15384609;4925.51282198;4207.56410250;3453.71794705;2235.12820089;229.99999153;-0.00000896;3218.84615170;4202.69230763;3975.12820458;4299.61538476;4731.28205233;4303.20512835;4173.33333320;4237.94871795
4240.64102564;4205.89743583;4897.17948857;4207.43589737;3613.33333202;2232.69230346;229.99999153;-0.00000896;3220.64102349;4235.51282052;3841.66666584;4300.38461553;4568.07692378;4300.89743604;4174.35897422;4237.94871795
4239.87179488;4206.66666660;4792.17948836;4234.35897436;3482.82051123;2234.87179064;229.99999153;-0.00000896;3220.51281836;4234.74358975;3913.71794803;4272.94871802;4466.66666716;4302.30769245;4174.74358961;4237.94871795
4239.23076923;4207.30769224;4891.41025780;4208.58974352;3486.28204969;2238.46153423;-0.00000896;-0.00000896;3221.53845939;4207.30769224;3938.84615322;4274.61538469;4566.15384685;4304.48717963;4174.48717935;4237.94871795
4237.69230770;4207.17948711;4990.76923237;4208.97435891;3420.76922904;2232.05127782;7.56409360;-0.00000896;3222.17948503;4235.12820513;3812.43589654;4299.74358989;4699.48718046;4303.46153860;4174.35897422;4237.94871795
4235.76923077;4206.79487173;4958.46153999;4234.10256411;3615.25640894;2206.66666236;229.99999153;-0.00000896;3249.48717741;4206.79487173;3811.53846064;4302.05128219;4667.56410347;4302.82051296;4173.71794858;4237.94871795
4208.84615378;4206.92307686;4732.82051387;4208.71794865;3612.69230638;2234.87179064;7.56409360;-0.00000896;3222.05127990;4209.10256404;4102.82051255;4301.41025655;4700.38461636;4301.79487194;4175.25641012;4205.12820506
4208.84615378;4206.15384609;4858.46153979;4234.61538462;3383.58974179;2234.23076500;229.99999153;-0.00000896;3220.64102349;4235.12820513;3846.28205045;4299.61538476;4760.51282163;4301.41025655;4174.61538448;4205.12820506
4207.05128199;4206.66666660;4895.76923216;4234.61538462;3386.28204948;2207.05127775;7.56409360;-0.00000896;3221.15384400;4239.35897436;3876.15384539;4299.48717963;4433.33333375;4302.17948732;4172.43589730;4205.12820506
4206.92307686;4205.51282045;4963.71795025;4234.74358975;3583.20512682;2206.15384185;229.99999153;-0.00000896;3222.43589529;4236.02564103;3876.41025565;4273.84615392;4829.48718074;4301.79487194;4174.35897422;4205.12820506
4206.28205122;4205.76923070;4766.79487291;4234.61538462;3610.76922945;2231.79486756;7.56409360;-0.00000896;3222.82051067;4238.84615385;3872.82051206;4302.17948732;4700.76923175;4301.53846168;4174.99999986;4205.12820506
4203.84615378;4205.89743583;4796.53846272;4234.48717949;3584.61538323;2233.20512397;229.99999153;-0.00000896;3221.66666452;4235.89743590;4008.97435849;4274.23076930;4764.48718060;4303.20512835;4174.74358961;4205.12820506
4204.10256404;4206.02564096;4830.12820638;4209.10256404;3317.43589549;2233.07691884;7.56409360;-0.00000896;3220.64102349;4235.12820513;3912.05128136;4273.33333341;4435.38461581;4302.82051296;4174.87179474;4205.12820506
4203.07692301;4205.12820506;4893.58974498;4234.87179488;3483.71794712;2233.97435474;229.99999153;-0.00000896;3220.64102349;4234.87179488;3942.94871733;4300.25641040;4732.43589848;4302.56410271;4201.41025634;4205.12820506
4202.56410250;4205.51282045;4762.56410368;4207.94871788;3512.30769078;2234.74358551;7.56409360;-0.00000896;3222.69230554;4236.02564103;3682.94871677;4301.02564117;4502.05128261;4301.02564117;4174.23076910;4205.12820506
4175.64102551;4204.99999993;4994.87179647;4208.97435891;3578.71794733;2205.89743159;229.99999153;-0.00000896;3249.35897228;4236.92307693;3843.97435814;4300.76923091;4762.69230881;4301.79487194;4174.87179474;4172.30769217
4175.89743576;4203.33333327;4765.12820624;4234.23076923;3614.74358843;2232.82050859;7.56409360;-0.00000896;3249.99999792;4238.46153847;3910.38461469;4300.51282066;4499.23076979;4303.20512835;4174.74358961;4172.30769217
4173.71794858;4203.46153840;4799.61538580;4235.00000000;3483.97435738;2206.79486749;229.99999153;-0.00000896;3249.74358766;4235.51282052;3880.51281975;4302.30769245;4600.25641102;4301.02564117;4174.61538448;4172.30769217
4172.30769217;4203.46153840;4695.38461636;4236.15384616;3516.92307540;2206.28204698;7.56409360;-0.00000896;3250.38461330;4239.87179488;3781.79487083;4301.66666681;4600.76923154;4302.17948732;4174.23076910;4172.30769217
4172.05128192;4202.43589737;4929.23077069;4237.05128206;3413.84615211;2206.53845723;229.99999153;-0.00000896;3224.48717734;4240.12820513;4011.92307644;4302.05128219;4729.35897541;4302.43589758;4175.12820499;4172.30769217
4170.89743576;4201.41025634;4895.64102703;4235.89743590;3580.38461400;2231.79486756;7.56409360;-0.00000896;3222.82051067;4238.58974359;3942.17948656;4301.92307707;4667.30769321;4303.20512835;4174.35897422;4172.30769217
4170.51282038;4176.28205115;4861.92307825;4238.46153847;3420.76922904;2236.02563679;229.99999153;-0.00000896;3221.41025426;4238.97435898;3840.51281968;4299.61538476;4662.30769321;4302.43589758;4175.89743576;4172.30769217
4169.74358961;4175.64102551;4861.02564235;4238.33333334;3613.07692176;2234.23076500;7.56409360;-0.00000896;3219.10256195;4236.92307693;3909.23076854;4303.97435912;4463.97435946;4303.20512835;4173.97435884;4172.30769217
4169.74358961;4174.35897422;4898.33333473;4238.07692308;3350.76922890;2200.25640595;229.99999153;-0.00000896;3218.84615170;4238.46153847;3880.25640950;4302.17948732;4828.97436023;4303.46153860;4175.12820499;4172.30769217
4170.64102551;4173.97435884;4792.94871913;4238.84615385;3681.15384498;2203.84614954;7.56409360;-0.00000896;3218.84615170;4240.51282052;3812.17948628;4302.69230784;4726.53846258;4302.94871809;4174.87179474;4172.30769217
4170.89743576;4174.10256397;4957.17948871;4238.20512821;3512.69230617;2238.07691884;229.99999153;-0.00000896;3189.87179265;4237.56410257;3845.89743507;4299.48717963;4799.23077042;4303.07692322;4174.10256397;4172.30769217
4170.89743576;4174.10256397;4830.76923202;4239.23076923;3454.10256244;2236.66666243;7.56409360;-0.00000896;3216.92307477;4237.69230770;3908.20512751;4301.15384630;4499.74359030;4303.07692322;4174.87179474;4172.30769217
4171.66666653;4173.58974345;4859.61538594;4237.94871795;3683.84615267;2206.02563672;229.99999153;-0.00000896;3218.07692093;4237.94871795;3878.84615309;4302.05128219;4827.82051408;4302.43589758;4174.87179474;4172.30769217
4169.61538448;4172.82051269;4832.56410382;4237.56410257;3514.99999848;2203.20512390;7.56409360;-0.00000896;3219.99999785;4240.12820513;3749.48717845;4302.05128219;4497.17948774;4302.94871809;4174.74358961;4172.30769217
4169.87179474;4172.05128192;4925.64102710;4238.46153847;3716.79487069;2231.92307269;229.99999153;-0.00000896;3220.38461323;4233.84615385;4006.92307644;4301.28205142;4858.46153979;4302.43589758;4174.87179474;4172.30769217
4169.10256397;4172.30769217;4898.20512960;4238.20512821;3484.74358815;2232.82050859;7.56409360;-0.00000896;3219.35897221;4236.28205129;3911.28205059;4299.74358989;4567.05128275;4301.28205142;4174.48717935;4172.30769217
4143.46153826;4172.82051269;4826.92307818;4238.97435898;3349.48717761;2234.23076500;229.99999153;-0.00000896;3219.87179272;4207.94871788;3971.79487124;4272.82051289;4568.33333403;4302.05128219;4175.12820499;4139.48717928
4141.02564082;4172.30769217;4923.33333480;4240.12820513;3611.79487048;2233.58973935;7.94870899;-0.00000896;3222.30769016;4205.51282045;3810.51281961;4303.07692322;4496.41025697;4303.20512835;4174.99999986;4139.48717928
4138.84615364;4173.20512807;4959.48718102;4240.00000000;3612.82051150;2206.79486749;34.10255521;-0.00000896;3223.84615170;4235.38461539;3781.79487083;4274.74358982;4824.74359100;4302.94871809;4202.69230763;4139.48717928
4136.15384595;4172.43589730;4796.66666785;4240.64102564;3579.48717810;2232.82050859;-0.00000896;-0.00000896;3250.25640818;4236.15384616;3979.23076868;4300.76923091;4831.79487305;4303.20512835;4175.12820499;4139.48717928
4106.79487152;4171.41025628;4827.82051408;4241.66666667;3354.35897249;2233.46153423;229.99999153;-0.00000896;3251.53845946;4236.02564103;3875.25640950;4300.12820527;4726.53846258;4302.30769245;4175.12820499;4106.66666639
4102.56410229;4171.53846140;4830.12820638;4241.28205129;3644.10256286;2235.25640602;229.99999153;-0.00000896;3253.07692100;4238.33333334;3879.74358898;4300.64102578;4499.61538518;4303.71794886;4174.99999986;4106.66666639
4074.10256376;4170.76923063;4798.20512939;4267.56410264;3450.38461372;2206.02563672;229.99999153;-0.00000896;3282.82051081;4235.51282052;3778.71794775;4300.25641040;4795.12820631;4300.89743604;4175.12820499;4073.84615350
4042.82051241;4169.61538448;4992.82051442;4268.46153853;3712.05128094;2206.79486749;229.99999153;-0.00000896;3290.12820312;4240.12820513;3746.41025537;4299.61538476;4532.05128268;4302.56410271;4175.25641012;4041.02564061
4009.35897388;4169.23076910;4862.05128338;4271.79487187;3483.71794712;2205.51281621;-0.00000896;-0.00000896;3288.07692107;4239.23076923;3847.17948635;4300.64102578;4698.58974457;4302.05128219;4175.51282038;4008.20512772
3976.02564047;4142.94871774;4828.33333459;4300.38461553;3615.25640894;2236.92307269;-0.00000896;-0.00000896;3284.87179286;4238.84615385;3907.56410187;4300.12820527;4600.76923154;4302.82051296;4175.25641012;3975.38461483
3945.25640963;4168.58974345;4566.28205198;4301.66666681;3483.07692148;2266.53845737;-0.00000896;-0.00000896;3253.33333125;4237.94871795;3650.89743465;4299.74358989;4596.92307769;4304.10256425;4175.76923063;3942.56410194
3942.43589681;4168.58974345;5025.89743757;4302.17948732;3548.97435752;2297.56409847;-0.00000896;-0.00000896;3191.28204906;4268.58974366;3746.79487076;4274.10256418;4597.82051359;4303.33333348;4175.64102551;3942.56410194
3940.38461476;4170.76923063;4924.74359121;4303.46153860;3644.48717824;2299.35897026;-0.00000896;-0.00000896;3120.89743354;4301.92307707;3813.33333243;4300.12820527;4732.30769335;4303.84615399;4175.89743576;3942.56410194
3942.17948656;4173.84615371;4897.30769370;4300.12820527;3617.30769099;2270.25640609;-0.00000896;-0.00000896;3059.87179237;4306.28205142;3972.82051227;4273.97435905;4630.51282135;4302.82051296;4176.02564089;3942.56410194
3972.82051227;4174.10256397;4733.58974464;4272.17948725;3577.56410118;2265.25640609;-0.00000896;-0.00000896;3052.94871545;4333.58974380;3875.12820437;4300.51282066;4761.41025753;4301.28205142;4176.28205115;3975.38461483
4006.28205080;4174.10256397;4892.43589883;4269.74358982;3646.02563978;2238.84614961;-0.00000896;-0.00000896;3024.23076666;4337.17948739;3908.33333264;4300.12820527;4601.79487256;4302.05128219;4173.46153833;4008.20512772
4041.02564061;4174.35897422;4731.28205233;4241.92307693;3546.79487034;2264.61538045;-0.00000896;-0.00000896;3021.66666410;4339.10256431;3647.05128080;4302.56410271;4696.41025739;4303.20512835;4201.15384609;4041.02564061
4076.28205094;4173.33333320;4795.51282170;4241.41025641;3643.20512696;2237.94871371;-0.00000896;-0.00000896;3023.97435641;4336.15384637;4039.48717907;4274.61538469;4594.87179564;4302.82051296;4176.28205115;4073.84615350
4136.92307672;4172.94871781;4765.25641137;4237.56410257;3581.15384477;2238.71794448;-0.00000896;-0.00000896;3052.69230519;4337.69230790;3976.92307637;4300.25641040;4498.20512876;4302.43589758;4201.92307686;4139.48717928
4171.41025628;4171.92307679;4695.00000098;4238.33333334;3512.17948565;2265.25640609;-0.00000896;-0.00000896;3055.38461289;4306.02564117;3976.53846099;4301.02564117;4567.05128275;4302.30769245;4175.25641012;4172.30769217
4204.10256404;4172.05128192;4824.61538587;4238.33333334;3515.89743437;2266.53845737;-0.00000896;-0.00000896;3087.17948475;4365.25641054;3978.07692252;4300.89743604;4733.46153951;4302.05128219;4175.89743576;4205.12820506
4235.51282052;4172.94871781;4993.46154006;4236.28205129;3485.25640866;2238.07691884;-0.00000896;-0.00000896;3122.56410021;4306.53846168;3741.92307588;4274.74358982;4595.38461615;4304.48717963;4202.82051275;4237.94871795
4237.69230770;4170.89743576;4827.17948843;4236.41025641;3617.56410125;2267.05127789;-0.00000896;-0.00000896;3155.38461310;4304.61538476;4107.30769203;4300.51282066;4793.07692426;4302.43589758;4201.02564096;4237.94871795
4238.84615385;4170.89743576;4795.76923195;4237.56410257;3482.82051123;2270.25640609;-0.00000896;-0.00000896;3156.02563874;4269.48717956;3942.69230707;4300.25641040;4596.02564179;4302.56410271;4175.51282038;4237.94871795
4239.10256411;4171.41025628;4697.69230867;4237.43589744;3676.53846036;2268.07691891;-0.00000896;-0.00000896;3158.20512592;4270.25641033;3843.20512738;4300.51282066;4530.00000063;4303.33333348;4201.15384609;4237.94871795
4237.82051282;4173.46153833;5021.79487347;4237.30769231;3420.76922904;2269.74358558;-0.00000896;-0.00000896;3185.25640804;4272.43589751;3873.07692232;4273.97435905;4830.76923202;4302.05128219;4201.02564096;4237.94871795
4238.07692308;4176.28205115;4926.41025787;4237.69230770;3648.33333209;2270.89743173;-0.00000896;-0.00000896;3183.84615163;4241.41025641;3810.12820423;4300.12820527;4729.23077028;4303.71794886;4174.61538448;4237.94871795
4237.30769231;4201.53846147;4993.46154006;4237.30769231;3546.92307547;2297.69230360;-0.00000896;-0.00000896;3156.79486951;4267.82051289;3873.71794796;4302.05128219;4661.28205219;4301.92307707;4201.02564096;4237.94871795
4237.56410257;4203.46153840;4859.87179620;4238.07692308;3550.12820367;2271.41025224;-0.00000896;-0.00000896;3152.69230540;4267.94871802;3977.94871740;4300.25641040;4566.41025711;4302.56410271;4175.76923063;4237.94871795
4238.46153847;4204.99999993;4958.33333487;4236.28205129;3515.51281899;2270.89743173;-0.00000896;-0.00000896;3153.46153617;4273.33333341;3811.92307602;4299.74358989;4759.23077035;4302.05128219;4175.89743576;4237.94871795
4239.35897436;4205.25641019;4894.48718088;4237.69230770;3448.20512654;2265.12820096;-0.00000896;-0.00000896;3153.97435669;4299.74358989;3840.76922994;4273.71794879;4665.12820604;4302.43589758;4175.76923063;4237.94871795
4240.00000000;4204.48717942;4994.35897596;4237.05128206;3714.74358864;2238.71794448;-0.00000896;-0.00000896;3152.69230540;4272.43589751;3808.20512731;4274.61538469;4699.10256508;4303.33333348;4175.89743576;4237.94871795
4240.64102564;4205.25641019;4731.02564207;4235.76923077;3613.33333202;2299.23076513;229.99999153;-0.00000896;3122.82051046;4299.61538476;4042.56410215;4300.00000014;4597.17948795;4302.05128219;4201.02564096;4237.94871795
4266.79487187;4206.53846147;4795.12820631;4236.79487180;3448.33333167;2270.89743173;68.07691426;-0.00000896;3123.07692072;4303.33333348;3942.05128143;4274.48717956;4766.41025753;4302.69230784;4176.15384602;4270.76923084
4267.82051289;4205.89743583;4697.82051380;4236.53846154;3614.23076791;2265.64102148;8277.82052137;-0.00000896;3123.46153610;4299.74358989;3873.58974283;4274.10256418;4438.07692350;4301.92307707;4176.28205115;4270.76923084
4270.51282059;4205.38461532;4893.46153986;4235.64102564;3513.07692155;2238.71794448;-0.00000896;-0.00000896;3119.87179251;4307.05128219;4009.48717900;4299.74358989;4860.64102697;4303.20512835;4175.25641012;4270.76923084
4274.48717956;4205.12820506;4861.15384748;4236.28205129;3648.71794747;2272.17948301;229.99999153;-0.00000896;3089.23076680;4300.00000014;3782.30769134;4301.66666681;4694.48718046;4304.48717963;4202.94871788;4270.76923084
4303.46153860;4206.79487173;4896.92307832;4237.30769231;3485.51281892;2299.74358565;229.99999153;-0.00000896;3052.69230519;4272.82051289;3842.82051199;4302.30769245;4596.66666743;4304.35897450;4174.48717935;4303.58974373
4336.41025662;4234.35897436;4797.56410375;4236.79487180;3487.05128046;2269.35897019;229.99999153;-0.00000896;3022.56410000;4272.43589751;3913.46153777;4299.61538476;4339.23076944;4303.97435912;4175.38461525;4336.41025662
4370.89743618;4235.38461539;4926.28205275;4236.66666667;3612.82051150;2268.20512404;229.99999153;-0.00000896;3053.46153596;4270.76923084;3971.41025586;4273.58974366;4862.56410389;4304.61538476;4201.53846147;4369.23076951
4403.71794907;4235.89743590;4759.35897547;4235.00000000;3611.28204997;2239.74358551;229.99999153;-0.00000896;3057.94871545;4299.74358989;3778.58974262;4273.20512828;4566.53846224;4303.71794886;4175.64102551;4402.05128240
4434.48717991;4235.64102564;4962.30769384;4236.79487180;3584.61538323;2238.84614961;229.99999153;-0.00000896;3091.92307449;4301.28205142;3945.76923015;4300.00000014;4693.71794969;4301.41025655;4174.61538448;4434.87179529
4437.30769273;4234.87179488;4698.84615482;4234.35897436;3646.41025516;2265.76922660;229.99999153;-0.00000896;3124.61538226;4270.64102571;4108.33333306;4274.48717956;4694.48718046;4303.20512835;4175.38461525;4434.87179529
4438.58974401;4234.23076923;4825.89743715;4208.58974352;3552.43589598;2267.30768814;229.99999153;-0.00000896;3153.71794643;4238.58974359;3841.28205045;4272.82051289;4728.07692412;4303.71794886;4208.20512814;4434.87179529
4435.25641068;4234.23076923;4959.10256564;4209.10256404;3417.30769057;2269.10255994;229.99999153;-0.00000896;3183.71794650;4208.71794865;3908.58974290;4299.74358989;4662.94871886;4304.74358989;4174.99999986;4434.87179529
4433.07692350;4234.35897436;4963.71795025;4207.69230763;3646.41025516;2268.58973942;229.99999153;-0.00000896;3187.43589522;4201.92307686;3878.33333257;4300.25641040;4662.43589834;4305.00000014;4174.87179474;4434.87179529
4405.12820548;4234.35897436;4961.15384769;4208.58974352;3546.41025495;2266.79486763;229.99999153;-0.00000896;3190.64102342;4205.38461532;3944.35897374;4301.28205142;4598.07692385;4304.35897450;4175.12820499;4402.05128240
4399.10256445;4234.87179488;4891.28205268;4208.97435891;3552.43589598;2269.74358558;229.99999153;-0.00000896;3189.61538240;4203.20512814;3977.05128150;4301.53846168;4795.64102683;4304.10256425;4175.12820499;4402.05128240
4368.33333362;4235.12820513;4799.74359093;4233.84615385;3421.41025468;2269.74358558;229.99999153;-0.00000896;3190.51281829;4173.58974345;3839.99999917;4300.00000014;4601.15384692;4306.02564117;4174.61538448;4369.23076951
4339.48717970;4235.38461539;4895.00000139;4208.20512814;3646.41025516;2267.94871378;229.99999153;-0.00000896;3186.15384393;4202.17948711;3978.58974304;4299.61538476;4795.89743708;4304.10256425;4174.48717935;4336.41025662
4333.07692329;4238.07692308;4728.33333438;4234.87179488;3647.69230645;2238.58973935;229.99999153;-0.00000896;3183.97435675;4204.23076917;3841.02564020;4273.07692315;4563.33333403;4304.87179501;4173.58974345;4336.41025662
4332.30769252;4235.89743590;4766.92307804;4209.10256404;3583.20512682;2239.23076500;229.99999153;-0.00000896;3184.99999778;4206.53846147;4036.92307651;4299.74358989;4402.94871830;4305.00000014;4174.48717935;4336.41025662
4303.97435912;4235.38461539;4792.17948836;4234.87179488;3610.51281920;2266.28204712;229.99999153;-0.00000896;3157.69230540;4205.51282045;3908.07692239;4300.00000014;4530.76923140;4304.74358989;4172.43589730;4303.58974373
4302.30769245;4235.89743590;4989.87179647;4234.10256411;3545.89743444;2266.53845737;229.99999153;-0.00000896;3156.41025412;4207.94871788;3777.17948621;4274.35897443;4693.33333431;4305.12820527;4174.35897422;4303.58974373
4299.87179501;4236.41025641;4731.41025746;4208.20512814;3583.07692169;2239.35897012;229.99999153;-0.00000896;3155.89743361;4207.05128199;3876.15384539;4274.35897443;4694.74359072;4303.71794886;4174.61538448;4303.58974373
4272.82051289;4235.76923077;4895.25641165;4208.71794865;3581.02563964;2236.92307269;229.99999153;-0.00000896;3155.51281822;4237.43589744;3906.66666598;4273.58974366;4826.92307818;4303.20512835;4174.48717935;4270.76923084
4272.43589751;4235.25641026;4791.79487298;4207.43589737;3612.56410125;2239.87179064;229.99999153;-0.00000896;3154.23076694;4237.94871795;3878.33333257;4274.48717956;4531.28205191;4303.84615399;4174.35897422;4270.76923084
4272.69230777;4234.61538462;4731.53846258;4207.69230763;3416.28204955;2268.07691891;229.99999153;-0.00000896;3125.25640790;4208.20512814;3811.28205038;4273.07692315;4699.10256508;4304.48717963;4174.10256397;4270.76923084
4271.66666674;4209.10256404;4963.20512974;4234.35897436;3650.89743465;2239.48717525;229.99999153;-0.00000896;3125.76922841;4235.00000000;3872.94871719;4300.25641040;4502.05128261;4304.10256425;4174.48717935;4270.76923084
4299.48717963;4208.58974352;4927.43589890;4209.10256404;3450.76922911;2238.20512397;229.99999153;-0.00000896;3154.10256181;4235.25641026;4009.48717900;4300.64102578;4796.15384734;4304.48717963;4174.61538448;4303.58974373
4299.61538476;4208.07692301;4727.94871899;4233.84615385;3712.69230658;2238.97435474;229.99999153;-0.00000896;3156.41025412;4236.41025641;3909.23076854;4274.10256418;4729.35897541;4305.25641040;4174.35897422;4303.58974373
4300.12820527;4206.92307686;4732.94871899;4235.25641026;3482.94871635;2267.43589327;229.99999153;-0.00000896;3157.05127976;4206.53846147;3776.28205031;4273.46153853;4665.25641116;4304.48717963;4173.58974345;4303.58974373
4301.28205142;4207.05128199;4893.84615524;4208.46153840;3618.07692176;2269.99999583;229.99999153;-0.00000896;3153.97435669;4204.74358968;3911.92307623;4300.25641040;4631.15384699;4304.10256425;4173.97435884;4303.58974373
4300.76923091;4206.79487173;4863.58974491;4207.94871788;3483.58974200;2269.48717532;229.99999153;-0.00000896;3152.43589515;4201.66666660;3743.20512717;4274.48717956;4793.46153965;4304.23076937;4173.97435884;4303.58974373
4302.17948732;4206.66666660;4792.82051401;4206.92307686;3682.43589626;2266.15384199;229.99999153;-0.00000896;3154.74358745;4174.61538448;3814.35897346;4300.64102578;4529.61538524;4304.87179501;4174.10256397;4303.58974373
4302.69230784;4207.17948711;4699.74359072;4207.69230763;3518.97435745;2238.58973935;229.99999153;-0.00000896;3156.53845925;4176.15384602;4143.20512800;4274.35897443;4599.61538538;4304.74358989;4174.35897422;4303.58974373
4302.69230784;4208.07692301;4699.87179585;4234.10256411;3549.74358829;2238.20512397;229.99999153;-0.00000896;3157.05127976;4201.28205122;3975.25640970;4300.51282066;4600.38461615;4305.64102578;4174.10256397;4303.58974373
4301.66666681;4208.71794865;4831.53846279;4235.76923077;3321.79486985;2266.92307276;229.99999153;-0.00000896;3156.92307463;4175.76923063;3978.58974304;4272.94871802;4730.12820617;4305.38461553;4174.23076910;4303.58974373
4302.56410271;4233.97435898;4990.51282211;4234.23076923;3585.25640887;2265.89743173;229.99999153;-0.00000896;3185.12820291;4201.66666660;3742.94871691;4272.43589751;4371.41025669;4305.25641040;4174.10256397;4303.58974373
4274.74358982;4208.33333327;4828.20512946;4233.84615385;3516.28204976;2235.51281628;38.20511931;-0.00000896;3189.35897214;4173.97435884;4110.64102537;4274.23076930;4760.25641137;4305.00000014;4173.71794858;4270.76923084
4273.46153853;4206.92307686;4890.76923216;4208.84615378;3649.48717824;2239.87179064;-0.00000896;-0.00000896;3186.92307470;4173.33333320;3878.33333257;4300.38461553;4728.97436002;4305.38461553;4173.97435884;4270.76923084
4270.51282059;4207.05128199;4798.46153965;4234.35897436;3318.20512626;2239.35897012;229.99999153;-0.00000896;3184.10256188;4201.41025634;3941.28205066;4300.38461553;4599.87179564;4303.46153860;4173.58974345;4270.76923084
4267.82051289;4207.05128199;4925.76923223;4235.12820513;3512.17948565;2239.10255987;-0.00000896;-0.00000896;3184.87179265;4202.82051275;3840.38461455;4299.61538476;4732.94871899;4304.35897450;4174.48717935;4270.76923084
4266.92307700;4206.15384609;4832.56410382;4235.12820513;3648.58974234;2237.94871371;-0.00000896;-0.00000896;3155.64102335;4201.15384609;3938.71794810;4299.48717963;4760.89743701;4305.89743604;4173.97435884;4270.76923084
4267.56410264;4205.12820506;4962.05128358;4236.79487180;3711.53846043;2238.07691884;-0.00000896;-0.00000896;3154.10256181;4173.84615371;3878.97435821;4274.10256418;4664.23077014;4306.02564117;4174.35897422;4270.76923084
4268.46153853;4205.38461532;4728.20512925;4237.30769231;3612.82051150;2237.17948294;-0.00000896;-0.00000896;3152.69230540;4176.15384602;4105.64102537;4274.35897443;4432.69230811;4304.74358989;4173.84615371;4270.76923084
4270.51282059;4205.12820506;4793.58974477;4236.79487180;3518.33333181;2239.23076500;-0.00000896;-0.00000896;3154.35897207;4175.89743576;3910.25640957;4300.38461553;4629.23077007;4304.35897450;4174.35897422;4270.76923084
4269.74358982;4205.76923070;4864.48718081;4237.94871795;3548.20512675;2239.74358551;-0.00000896;-0.00000896;3156.79486951;4202.30769224;4044.61538420;4274.10256418;4733.46153951;4304.48717963;4173.46153833;4270.76923084
4269.35897443;4205.12820506;5026.02564270;4236.79487180;3487.05128046;2267.43589327;-0.00000896;-0.00000896;3155.89743361;4169.48717935;3809.35897346;4301.15384630;4661.02564193;4304.10256425;4172.94871781;4270.76923084
4268.46153853;4205.12820506;4825.12820638;4238.07692308;3709.35897325;2264.87179071;-0.00000896;-0.00000896;3155.76922848;4170.76923063;4010.12820465;4273.71794879;4728.33333438;4306.28205142;4173.71794858;4270.76923084
4267.43589751;4204.48717942;4831.66666792;4236.79487180;3617.17948586;2239.74358551;-0.00000896;-0.00000896;3157.94871566;4173.84615371;3911.15384546;4274.23076930;4633.71794956;4302.17948732;4175.38461525;4270.76923084
4240.51282052;4204.99999993;4699.35897534;4236.02564103;3484.10256251;2267.05127789;-0.00000896;-0.00000896;3186.53845932;4172.94871781;3742.30769127;4271.53846161;4499.61538518;4304.61538476;4173.84615371;4237.94871795
4238.97435898;4203.46153840;4924.10256557;4237.69230770;3613.84615253;2268.71794455;-0.00000896;-0.00000896;3155.89743361;4172.43589730;3942.43589681;4274.61538469;4859.23077055;4304.74358989;4173.71794858;4237.94871795
4236.92307693;4202.94871788;4994.35897596;4237.30769231;3517.56410104;2239.61538038;-0.00000896;-0.00000896;3158.84615156;4170.38461525;3843.33333250;4301.41025655;4631.92307776;4306.02564117;4171.53846140;4237.94871795
4234.35897436;4202.30769224;4929.23077069;4236.66666667;3614.10256279;2265.64102148;-0.00000896;-0.00000896;3157.30769002;4169.61538448;3974.99999945;4300.64102578;4601.15384692;4306.28205142;4173.71794858;4237.94871795
4207.17948711;4201.66666660;4731.79487284;4236.66666667;3385.25640845;2239.87179064;-0.00000896;-0.00000896;3157.30769002;4171.79487166;3782.43589647;4273.20512828;4696.66666764;4305.38461553;4173.58974345;4205.12820506
4205.64102558;4201.66666660;4993.46154006;4235.64102564;3617.82051150;2267.17948301;-0.00000896;-0.00000896;3156.41025412;4171.66666653;3907.30769162;4274.10256418;4629.10256494;4305.25641040;4173.46153833;4205.12820506
4204.61538455;4202.05128199;4698.97435995;4236.28205129;3484.87179328;2266.28204712;-0.00000896;-0.00000896;3155.51281822;4170.76923063;3745.25640922;4300.64102578;4628.58974443;4303.71794886;4173.71794858;4205.12820506
4203.97435891;4201.66666660;4960.76923230;4235.89743590;3676.92307575;2265.64102148;-0.00000896;-0.00000896;3125.64102328;4172.30769217;3913.58974290;4274.48717956;4696.66666764;4304.61538476;4173.07692294;4205.12820506
4202.94871788;4175.76923063;4831.92307818;4234.74358975;3486.15384456;2266.02563686;-0.00000896;-0.00000896;3151.92307463;4170.51282038;3912.17948649;4299.87179501;4630.00000084;4305.76923091;4173.46153833;4205.12820506
4202.30769224;4175.89743576;4926.92307839;4234.23076923;3614.10256279;2266.92307276;-0.00000896;-0.00000896;3123.97435662;4168.20512807;3841.15384532;4301.53846168;4696.02564200;4305.51282066;4173.71794858;4205.12820506
4203.84615378;4176.02564089;4694.87179585;4233.97435898;3421.41025468;2239.10255987;-0.00000896;-0.00000896;3123.71794636;4170.89743576;3745.38461435;4274.23076930;4761.92307804;4303.97435912;4173.46153833;4205.12820506
4204.48717942;4201.66666660;4990.00000160;4208.84615378;3711.41025530;2266.15384199;-0.00000896;-0.00000896;3124.87179251;4170.12820499;3939.99999938;4273.46153853;4824.61538587;4306.92307707;4173.33333320;4205.12820506
4205.89743583;4202.17948711;4828.97436023;4208.71794865;3578.07692169;2264.99999583;-0.00000896;-0.00000896;3123.46153610;4142.82051262;3813.84615295;4274.61538469;4503.07692364;4306.41025655;4172.56410243;4205.12820506
4207.05128199;4201.02564096;4794.48718067;4234.74358975;3518.46153694;2264.99999583;-0.00000896;-0.00000896;3124.23076687;4141.79487159;3875.89743514;4274.23076930;4699.61538559;4306.41025655;4171.79487166;4205.12820506
4207.43589737;4175.12820499;4865.51282184;4234.61538462;3549.74358829;2268.20512404;-0.00000896;-0.00000896;3125.89743354;4142.56410236;3877.17948642;4301.28205142;4496.53846210;4306.53846168;4173.58974345;4205.12820506
4207.43589737;4176.15384602;4923.20512967;4235.12820513;3514.99999848;2265.76922660;-0.00000896;-0.00000896;3124.48717713;4139.10256390;3906.15384546;4273.97435905;4858.46153979;4305.76923091;4173.71794858;4205.12820506
4208.71794865;4201.41025634;4858.97436030;4208.97435891;3716.28205017;2264.74358558;229.99999153;-0.00000896;3153.58974130;4169.23076910;3813.71794782;4299.74358989;4628.33333417;4305.76923091;4173.46153833;4205.12820506
4208.97435891;4202.17948711;4766.53846265;4234.10256411;3610.64102432;2239.23076500;229.99999153;-0.00000896;3153.33333104;4142.69230749;4011.02564054;4274.61538469;4534.74359037;4305.25641040;4172.43589730;4205.12820506
4208.84615378;4201.41025634;4732.17948823;4208.71794865;3386.92307512;2266.15384199;229.99999153;-0.00000896;3157.82051053;4168.20512807;3911.15384546;4300.76923091;4661.02564193;4305.64102578;4173.20512807;4205.12820506
4233.97435898;4201.02564096;4927.17948864;4234.48717949;3483.46153687;2269.48717532;229.99999153;-0.00000896;3157.05127976;4141.66666646;3974.74358919;4299.87179501;4601.02564179;4305.00000014;4172.94871781;4237.94871795
4233.84615385;4201.28205122;4699.23077021;4235.12820513;3514.87179335;2267.94871378;69.99999118;-0.00000896;3157.94871566;4168.71794858;3650.25640901;4272.17948725;4532.56410319;4305.51282066;4172.94871781;4237.94871795
4207.82051275;4201.66666660;4925.38461685;4236.15384616;3643.20512696;2268.71794455;-0.00000896;-0.00000896;3157.69230540;4142.94871774;3846.15384532;4272.56410264;4792.69230888;4332.56410278;4173.71794858;4205.12820506
4206.66666660;4202.94871788;4862.17948850;4235.51282052;3515.25640873;2267.43589327;229.99999153;-0.00000896;3183.58974137;4141.92307672;3976.92307637;4301.02564117;4562.30769301;4306.28205142;4173.46153833;4205.12820506
4205.25641019;4203.46153840;4761.53846265;4237.43589744;3517.56410104;2269.99999583;-0.00000896;-0.00000896;3156.53845925;4171.92307679;3876.79487103;4299.87179501;4732.69230874;4303.07692322;4173.97435884;4205.12820506
4204.10256404;4202.43589737;4958.46153999;4235.89743590;3577.69230631;2270.38461122;229.99999153;-0.00000896;3154.87179258;4168.33333320;3879.35897360;4300.25641040;4497.17948774;4305.12820527;4172.94871781;4205.12820506
4203.71794865;4203.84615378;4793.33333452;4236.02564103;3511.79487027;2271.15384199;-0.00000896;-0.00000896;3151.79486951;4169.10256397;3978.07692252;4274.48717956;4797.30769349;4304.87179501;4173.33333320;4205.12820506
4203.97435891;4203.58974352;4694.10256508;4236.53846154;3645.25640901;2238.20512397;229.99999153;-0.00000896;3125.38461303;4168.71794858;3874.10256334;4274.74358982;4762.69230881;4306.79487194;4172.30769217;4205.12820506
4203.33333327;4201.41025634;4829.74359100;4236.02564103;3452.94871628;2233.33332910;-0.00000896;-0.00000896;3154.99999771;4172.17948704;3780.89743493;4299.61538476;4697.82051380;4305.51282066;4173.20512807;4205.12820506
4203.33333327;4175.51282038;4857.94871927;4237.05128206;3643.07692183;2266.92307276;229.99999153;-0.00000896;3151.15384386;4168.58974345;3877.69230693;4272.43589751;4568.84615454;4305.51282066;4173.97435884;4205.12820506
4203.20512814;4201.15384609;4831.66666792;4236.66666667;3518.33333181;2266.79486763;-0.00000896;-0.00000896;3151.92307463;4172.69230756;3682.94871677;4302.30769245;4763.20512932;4303.84615399;4173.07692294;4205.12820506
4202.30769224;4174.48717935;4795.64102683;4237.82051282;3617.05128073;2265.51281635;229.99999153;-0.00000896;3152.56410027;4169.87179474;4037.94871754;4300.38461553;4727.82051387;4332.43589765;4172.94871781;4205.12820506
4201.28205122;4172.43589730;4832.05128331;4237.30769231;3387.94871615;2239.87179064;-0.00000896;-0.00000896;3151.92307463;4172.56410243;3808.97435807;4273.46153853;4766.79487291;4304.87179501;4172.69230756;4205.12820506
4175.89743576;4171.92307679;4830.64102690;4236.28205129;3583.07692169;2265.38461122;229.99999153;-0.00000896;3154.35897207;4169.23076910;3940.89743528;4273.84615392;4500.76923133;4304.74358989;4174.48717935;4172.30769217
4173.84615371;4172.05128192;4733.07692412;4236.15384616;3386.15384435;2265.89743173;-0.00000896;-0.00000896;3125.76922841;4138.58974339;3713.84615274;4299.74358989;4796.92307811;4305.51282066;4172.94871781;4172.30769217
4174.48717935;4171.41025628;4991.02564263;4236.79487180;3748.20512717;2266.79486763;229.99999153;-0.00000896;3152.94871566;4142.17948697;3807.69230679;4273.84615392;4496.79487235;4306.66666681;4173.07692294;4172.30769217
4174.10256397;4172.05128192;4925.76923223;4236.92307693;3482.56410097;2269.87179071;-0.00000896;-0.00000896;3123.20512585;4168.46153833;3944.35897374;4274.10256418;4766.28205240;4305.25641040;4173.33333320;4172.30769217
4174.23076910;4172.82051269;4794.10256529;4236.02564103;3709.10256299;2268.58973942;229.99999153;-0.00000896;3123.20512585;4143.07692287;3939.99999938;4273.84615392;4536.15384678;4302.69230784;4173.20512807;4172.30769217
4173.84615371;4172.30769217;4730.38461643;4235.89743590;3414.74358801;2267.05127789;-0.00000896;-0.00000896;3123.33333097;4141.02564082;3713.33333223;4272.82051289;4502.69230825;4304.23076937;4174.99999986;4172.30769217
4173.97435884;4172.17948704;4957.94871948;4234.74358975;3614.87179356;2267.17948301;229.99999153;-0.00000896;3124.23076687;4141.28205108;3874.23076847;4300.12820527;4765.51282163;4305.51282066;4173.46153833;4172.30769217
4174.87179474;4172.82051269;4799.61538580;4234.87179488;3513.46153694;2268.71794455;-0.00000896;-0.00000896;3125.38461303;4137.56410236;3779.10256313;4299.74358989;4664.10256501;4304.87179501;4172.82051269;4172.30769217
4173.58974345;4173.71794858;4831.53846279;4234.74358975;3582.05128067;2271.02563686;229.99999153;-0.00000896;3151.28204899;4136.41025621;4036.92307651;4300.76923091;4563.71794942;4306.79487194;4172.94871781;4172.30769217
4173.58974345;4173.58974345;4697.56410354;4234.35897436;3517.69230617;2268.33332917;-0.00000896;-0.00000896;3154.61538233;4108.20512793;3946.15384553;4300.51282066;4727.56410361;4305.38461553;4173.20512807;4172.30769217
4173.71794858;4173.46153833;4762.43589855;4233.84615385;3515.25640873;2267.82050866;229.99999153;-0.00000896;3156.66666438;4139.23076903;3913.33333264;4274.48717956;4630.38461622;4304.87179501;4172.56410243;4172.30769217
4172.05128192;4173.97435884;4828.20512946;4208.71794865;3617.30769099;2265.25640609;-0.00000896;-0.00000896;3158.07692079;4138.20512800;3715.38461428;4301.28205142;4828.71794997;4304.48717963;4171.53846140;4172.30769217
4169.48717935;4174.61538448;4859.87179620;4241.28205129;3650.38461414;2268.84614968;229.99999153;-0.00000896;3157.05127976;4140.12820492;4042.94871754;4274.23076930;4760.76923188;4303.71794886;4173.46153833;4172.30769217
4170.51282038;4174.35897422;4827.30769356;4234.61538462;3448.58974193;2271.41025224;-0.00000896;-0.00000896;3154.23076694;4137.05128185;3878.58974283;4301.28205142;4693.58974457;4303.46153860;4173.97435884;4172.30769217
4169.74358961;4175.89743576;4897.56410396;4234.10256411;3615.51281920;2264.61538045;229.99999153;-0.00000896;3154.74358745;4139.10256390;3971.28205073;4303.33333348;4567.69230839;4304.48717963;4173.84615371;4172.30769217
4169.23076910;4201.15384609;4731.41025746;4234.23076923;3610.25640894;2239.10255987;-0.00000896;-0.00000896;3153.84615156;4170.12820499;3780.76922980;4299.74358989;4562.56410326;4306.15384630;4173.20512807;4172.30769217
4169.35897422;4175.38461525;4990.76923237;4208.58974352;3454.23076757;2238.71794448;229.99999153;-0.00000896;3154.61538233;4173.20512807;3939.35897374;4274.74358982;4860.51282184;4305.25641040;4174.23076910;4172.30769217
4169.48717935;4173.71794858;4895.76923216;4208.07692301;3646.41025516;2238.20512397;-0.00000896;-0.00000896;3156.28204899;4174.48717935;3844.10256327;4274.74358982;4763.33333445;4305.51282066;4173.46153833;4172.30769217
4168.97435884;4173.46153833;4891.15384755;4234.23076923;3646.02563978;2264.99999583;-0.00000896;-0.00000896;3156.66666438;4169.99999986;3912.05128136;4274.74358982;4660.76923168;4302.17948732;4173.58974345;4172.30769217
4168.84615371;4173.58974345;4733.71794976;4207.94871788;3415.64102391;2239.61538038;34.99999111;-0.00000896;3157.56410027;4169.10256397;3747.94871691;4300.38461553;4404.10256445;4303.84615399;4173.58974345;4172.30769217
4142.30769210;4173.58974345;4992.43589904;4208.97435891;3579.48717810;2265.38461122;229.99999153;-0.00000896;3156.28204899;4168.20512807;3910.51281982;4299.61538476;4764.35897547;4303.46153860;4174.10256397;4139.48717928
4142.56410236;4172.17948704;4762.05128317;4209.10256404;3583.33333195;2266.15384199;229.99999153;-0.00000896;3155.89743361;4173.07692294;3746.41025537;4273.58974366;4762.05128317;4302.30769245;4173.46153833;4139.48717928
4142.30769210;4172.82051269;4963.71795025;4208.20512814;3643.07692183;2266.02563686;229.99999153;-0.00000896;3152.30769002;4142.05128185;3973.71794817;4300.76923091;4665.38461629;4304.87179501;4173.71794858;4139.48717928
4141.53846133;4173.07692294;4766.92307804;4208.20512814;3581.02563964;2266.02563686;229.99999153;-0.00000896;3153.20512592;4142.69230749;3875.51281975;4300.25641040;4504.23076979;4306.02564117;4172.94871781;4139.48717928
4142.05128185;4173.33333320;4795.51282170;4209.10256404;3416.92307519;2239.74358551;-0.00000896;-0.00000896;3155.25640797;4171.02564089;3943.46153784;4299.48717963;4667.30769321;4304.35897450;4174.10256397;4139.48717928
4143.33333313;4172.69230756;4697.94871893;4208.71794865;3582.30769092;2270.12820096;-0.00000896;-0.00000896;3157.05127976;4171.79487166;3812.05128115;4301.92307707;4564.87179557;4303.58974373;4173.97435884;4139.48717928
4143.07692287;4172.05128192;4926.66666813;4208.97435891;3418.97435724;2267.69230353;-0.00000896;-0.00000896;3183.71794650;4169.74358961;3908.58974290;4273.97435905;4860.51282184;4305.38461553;4174.61538448;4139.48717928
4168.33333320;4173.46153833;4864.61538594;4209.10256404;3649.35897311;2266.15384199;-0.00000896;-0.00000896;3183.71794650;4143.07692287;3873.71794796;4274.35897443;4662.30769321;4302.82051296;4172.05128192;4172.30769217
4142.82051262;4174.10256397;4792.56410375;4209.10256404;3420.25640852;2267.94871378;-0.00000896;-0.00000896;3184.10256188;4143.46153826;3845.64102481;4300.89743604;4759.48718060;4302.69230784;4173.58974345;4139.48717928
4142.69230749;4173.84615371;4797.43589862;4235.76923077;3551.53846008;2268.58973942;-0.00000896;-0.00000896;3184.48717727;4140.38461518;3847.30769148;4274.74358982;4434.61538504;4303.33333348;4174.74358961;4139.48717928
4141.92307672;4174.35897422;4993.71795032;4235.38461539;3451.41025475;2267.94871378;-0.00000896;-0.00000896;3184.74358752;4141.79487159;3945.76923015;4300.51282066;4861.79487312;4304.10256425;4173.58974345;4139.48717928
4140.64102544;4175.25641012;4862.69230902;4236.66666667;3613.20512689;2266.02563686;-0.00000896;-0.00000896;3158.20512592;4168.20512807;3809.61538372;4300.00000014;4730.76923182;4304.35897450;4173.71794858;4139.48717928
4140.76923056;4176.15384602;4861.53846286;4236.28205129;3617.05128073;2268.46153430;-0.00000896;-0.00000896;3183.84615163;4168.58974345;3908.07692239;4300.76923091;4635.38461622;4303.71794886;4173.71794858;4139.48717928
4139.48717928;4176.02564089;4826.53846279;4236.66666667;3519.10256258;2239.87179064;-0.00000896;-0.00000896;3158.71794643;4171.41025628;3905.64102495;4273.33333341;4498.33333389;4303.07692322;4175.12820499;4139.48717928
4138.84615364;4174.74358961;5022.17948885;4237.56410257;3519.48717796;2237.05127782;-0.00000896;-0.00000896;3157.94871566;4173.33333320;3744.23076819;4273.71794879;4697.82051380;4304.74358989;4173.46153833;4139.48717928
4138.58974339;4174.99999986;4733.20512925;4237.94871795;3548.84615239;2267.82050866;-0.00000896;-0.00000896;3157.56410027;4174.10256397;3939.48717887;4273.97435905;4627.82051366;4306.02564117;4173.58974345;4139.48717928
4137.69230749;4175.64102551;5121.53846342;4238.33333334;3451.79487013;2268.20512404;-0.00000896;-0.00000896;3184.87179265;4170.64102551;3912.69230700;4274.74358982;4892.94871934;4303.33333348;4173.84615371;4139.48717928
4136.41025621;4175.12820499;4698.46153944;4239.10256411;3644.99999875;2239.10255987;-0.00000896;-0.00000896;3188.97435675;4174.23076910;3875.89743514;4300.00000014;4533.58974422;4305.64102578;4170.76923063;4139.48717928
4108.33333306;4174.74358961;4798.46153965;4239.74358975;3420.76922904;2234.23076500;-0.00000896;-0.00000896;3190.89743368;4173.07692294;3877.43589668;4273.20512828;4562.69230839;4304.74358989;4174.74358961;4106.66666639
4105.12820485;4172.69230756;4763.33333445;4240.00000000;3611.28204997;2234.48717525;-0.00000896;-0.00000896;3191.41025419;4175.76923063;3808.84615295;4273.84615392;4568.33333403;4304.61538476;4173.97435884;4106.66666639
4076.15384581;4171.53846140;4831.66666792;4241.41025641;3485.25640866;2238.71794448;-0.00000896;-0.00000896;3189.99999778;4203.71794865;3874.23076847;4300.64102578;4729.10256515;4303.20512835;4174.23076910;4073.84615350
4071.41025607;4172.82051269;4928.71795018;4267.30769238;3645.76922952;2270.51281635;-0.00000896;-0.00000896;3187.17948496;4204.10256404;3875.51281975;4300.00000014;4567.43589813;4302.94871809;4174.10256397;4073.84615350
4043.58974318;4174.35897422;4798.58974477;4269.48717956;3519.87179335;2272.56409840;-0.00000896;-0.00000896;3183.84615163;4202.43589737;3972.82051227;4274.48717956;4600.89743667;4303.84615399;4173.84615371;4041.02564061
4039.74358933;4175.25641012;4857.43589876;4268.97435905;3514.48717796;2270.51281635;-0.00000896;-0.00000896;3158.33333104;4205.89743583;3843.97435814;4299.74358989;4733.20512925;4304.35897450;4174.61538448;4041.02564061
4037.05128164;4176.15384602;4928.07692454;4267.94871802;3578.07692169;2269.23076507;-0.00000896;-0.00000896;3155.89743361;4235.00000000;3811.66666577;4300.76923091;4729.61538566;4304.48717963;4174.74358961;4041.02564061
4011.15384567;4175.51282038;4862.69230902;4268.58974366;3645.64102439;2269.87179071;-0.00000896;-0.00000896;3152.05127976;4236.28205129;3780.51281954;4300.51282066;4562.69230839;4303.97435912;4174.99999986;4008.20512772
4010.76923029;4175.76923063;4858.97436030;4268.20512828;3583.33333195;2270.51281635;-0.00000896;-0.00000896;3125.89743354;4239.87179488;3906.79487110;4299.74358989;4666.28205219;4304.10256425;4174.74358961;4008.20512772
4010.51282003;4176.28205115;4766.53846265;4268.58974366;3680.64102446;2269.61538045;-0.00000896;-0.00000896;3122.94871559;4273.46153853;3879.61538385;4301.41025655;4600.25641102;4302.94871809;4174.74358961;4008.20512772
4011.15384567;4175.64102551;4728.33333438;4269.61538469;3385.76922897;2272.17948301;229.99999153;-0.00000896;3119.23076687;4273.71794879;3649.87179362;4274.35897443;4597.43589820;4303.07692322;4175.12820499;4008.20512772
4011.15384567;4176.15384602;4996.79487340;4268.97435905;3681.53846036;2297.56409847;-0.00000896;-0.00000896;3092.56410014;4271.66666674;3843.97435814;4300.00000014;4504.23076979;4304.10256425;4175.25641012;4008.20512772
4038.33333292;4175.51282038;4831.41025766;4267.82051289;3545.38461393;2270.89743173;-0.00000896;-0.00000896;3090.51281808;4274.61538469;3810.76922987;4300.89743604;4731.79487284;4302.82051296;4175.64102551;4041.02564061
4039.61538420;4174.74358961;4733.58974464;4267.56410264;3546.53846008;2271.66666250;4.74358078;-0.00000896;3087.43589501;4273.33333341;4010.12820465;4274.74358982;4633.20512904;4305.00000014;4176.15384602;4041.02564061
4042.17948677;4174.87179474;4727.56410361;4267.30769238;3513.20512668;2299.10256001;229.99999153;-0.00000896;3085.64102321;4304.10256425;3814.74358884;4273.46153853;4597.17948795;4304.48717963;4175.76923063;4041.02564061
4069.99999966;4174.74358961;4892.69230909;4241.53846154;3353.46153659;2266.53845737;229.99999153;-0.00000896;3059.87179237;4304.48717963;3779.87179390;4274.48717956;4633.07692391;4301.28205142;4175.89743576;4073.84615350
4073.71794837;4173.84615371;4895.64102703;4238.97435898;3610.64102432;2266.79486763;229.99999153;-0.00000896;3059.10256160;4336.41025662;4105.51282024;4301.53846168;4668.33333424;4302.43589758;4176.02564089;4073.84615350
4076.66666632;4172.43589730;4859.61538594;4238.58974359;3550.64102419;2269.48717532;229.99999153;-0.00000896;3059.48717699;4304.61538476;3876.53846078;4272.94871802;4530.25641089;4303.58974373;4174.23076910;4073.84615350
4106.28205101;4172.82051269;4765.12820624;4238.07692308;3610.76922945;2268.97435481;229.99999153;-0.00000896;3058.46153596;4305.76923091;3974.61538406;4273.07692315;4634.48718032;4302.69230784;4176.02564089;4106.66666639
4107.82051255;4171.53846140;4925.51282198;4236.41025641;3545.25640880;2272.56409840;229.99999153;-0.00000896;3059.61538212;4303.07692322;3909.74358905;4301.41025655;4727.43589848;4302.94871809;4176.15384602;4106.66666639
4135.51282031;4172.17948704;4893.97436037;4235.89743590;3515.76922924;2299.10256001;229.99999153;-0.00000896;3085.51281808;4305.89743604;3779.10256313;4273.84615392;4695.38461636;4302.82051296;4176.15384602;4139.48717928
4137.17948697;4171.79487166;4928.58974505;4234.87179488;3552.69230624;2270.76922660;229.99999153;-0.00000896;3087.43589501;4303.71794886;4039.87179446;4274.35897443;4958.07692461;4303.33333348;4176.02564089;4139.48717928
4139.61538441;4171.79487166;4861.15384748;4207.43589737;3643.07692183;2271.41025224;229.99999153;-0.00000896;3088.97435655;4303.71794886;3846.28205045;4273.33333341;4662.30769321;4303.97435912;4176.02564089;4139.48717928
4140.89743569;4171.28205115;4864.61538594;4206.92307686;3515.76922924;2297.56409847;229.99999153;-0.00000896;3090.89743347;4299.74358989;3908.20512751;4272.05128212;4663.46153937;4302.94871809;4176.15384602;4139.48717928
4141.92307672;4172.05128192;4700.64102662;4206.53846147;3452.43589577;2270.76922660;229.99999153;-0.00000896;3091.28204885;4300.38461553;3741.66666563;4299.74358989;4501.92307748;4301.28205142;4175.64102551;4139.48717928
4141.28205108;4172.43589730;4991.66666827;4206.28205122;3676.41025523;2269.35897019;229.99999153;-0.00000896;3119.10256174;4302.30769245;3878.71794796;4273.20512828;4831.28205254;4302.82051296;4176.02564089;4139.48717928
4142.17948697;4172.05128192;4831.92307818;4206.41025634;3544.61538316;2268.97435481;229.99999153;-0.00000896;3120.76922841;4271.15384623;3777.56410160;4273.97435905;4698.58974457;4303.97435912;4201.02564096;4139.48717928
4142.17948697;4173.33333320;4925.25641172;4205.76923070;3644.23076798;2268.46153430;229.99999153;-0.00000896;3122.05127969;4274.74358982;3844.61538379;4274.10256418;4663.97435988;4302.56410271;4175.89743576;4139.48717928
4142.69230749;4173.97435884;4830.89743715;4206.28205122;3581.66666528;2267.82050866;229.99999153;-0.00000896;3124.48717713;4303.71794886;3912.82051213;4300.25641040;4531.92307755;4302.05128219;4176.28205115;4139.48717928
4168.46153833;4174.48717935;4923.46153992;4207.94871788;3418.71794698;2271.15384199;229.99999153;-0.00000896;3124.48717713;4302.94871809;3814.87179397;4273.97435905;4766.92307804;4303.46153860;4176.15384602;4172.30769217
4168.58974345;4174.87179474;4766.28205240;4208.84615378;3547.69230624;2268.71794455;229.99999153;-0.00000896;3125.51281815;4301.41025655;3945.12820451;4273.84615392;4699.74359072;4303.33333348;4175.25641012;4172.30769217
4169.61538448;4174.99999986;4826.66666792;4235.51282052;3579.48717810;2272.17948301;229.99999153;-0.00000896;3151.66666438;4299.61538476;3939.87179425;4299.87179501;4731.53846258;4302.17948732;4201.41025634;4172.30769217
4169.87179474;4175.25641012;4765.51282163;4236.79487180;3578.46153708;2272.43589327;229.99999153;-0.00000896;3151.41025412;4301.66666681;3874.99999924;4270.64102571;4627.69230853;4302.94871809;4201.15384609;4172.30769217
4171.79487166;4176.02564089;4960.64102717;4237.17948718;3614.48717817;2271.53845737;229.99999153;-0.00000896;3125.89743354;4305.12820527;3978.20512765;4274.35897443;4694.61538559;4302.56410271;4176.28205115;4172.30769217
4172.56410243;4175.12820499;4569.87179557;4237.30769231;3452.05128039;2266.92307276;229.99999153;-0.00000896;3124.61538226;4306.79487194;3748.84615281;4299.61538476;4469.61538511;4301.66666681;4201.02564096;4172.30769217
4173.71794858;4174.10256397;5025.00000167;4237.94871795;3711.28205017;2299.61538052;229.99999153;-0.00000896;3122.30768995;4304.23076937;3972.17948663;4274.23076930;4859.74359107;4301.15384630;4174.74358961;4172.30769217
4174.99999986;4174.48717935;4897.56410396;4236.92307693;3519.23076771;2302.05127796;229.99999153;-0.00000896;3119.61538226;4307.17948732;3843.46153763;4300.00000014;4663.97435988;4302.94871809;4176.02564089;4172.30769217
4176.15384602;4175.25641012;4826.28205254;4238.58974359;3715.64102453;2272.43589327;229.99999153;-0.00000896;3092.82051039;4302.94871809;4004.23076875;4299.74358989;4727.30769335;4302.69230784;4201.15384609;4172.30769217
4203.33333327;4176.02564089;4732.69230874;4236.15384616;3349.48717761;2268.46153430;229.99999153;-0.00000896;3120.38461303;4304.61538476;3809.87179397;4300.51282066;4600.38461615;4302.30769245;4176.28205115;4205.12820506
4202.82051275;4173.84615371;4996.41025801;4236.41025641;3676.41025523;2268.33332917;229.99999153;-0.00000896;3121.15384380;4300.25641040;3941.53846092;4299.48717963;4696.02564200;4302.56410271;4176.02564089;4205.12820506
4202.43589737;4175.25641012;4760.25641137;4235.89743590;3548.97435752;2270.51281635;229.99999153;-0.00000896;3119.48717713;4272.05128212;3778.33333236;4301.15384630;4628.20512904;4304.61538476;4201.02564096;4205.12820506
4202.69230763;4175.89743576;4897.17948857;4234.35897436;3679.10256293;2270.89743173;229.99999153;-0.00000896;3118.20512585;4302.43589758;4071.28205094;4273.58974366;4728.97436002;4302.56410271;4201.53846147;4205.12820506
4202.30769224;4176.15384602;4860.51282184;4234.74358975;3644.74358850;2297.43589334;229.99999153;-0.00000896;3119.10256174;4303.58974373;3910.64102495;4273.71794879;4598.33333410;4303.58974373;4176.15384602;4205.12820506
