Gyro-X;Gyro-Z;AF3;Gyro-Y;T7;Acc-X;Pz;QualityData_1;QualityData_2;Acc-Z;Acc-Y;T8;Mag-X;AF4;Mag-Z;Mag-Y;Mag-X;Gyro-X 
4207.43589737;4202.82051275;4496.53846210;4235.51282052;4300.25641040;1972.05127726;229.99999153;-0.00000896;4142.17948697;4269.48717956;4595.25641102;4305.76923091;4567.43589813;4203.71794865;4175.76923063;4205.12820506
4206.79487173;4204.35897429;4568.84615454;4234.61538462;4464.74359023;1972.05127726;-0.00000896;-0.00000896;4142.56410236;4302.94871809;4536.02564165;4304.10256425;4598.20512897;4202.43589737;4175.76923063;4205.12820506
4206.66666660;4203.97435891;4435.38461581;4236.15384616;4464.23076972;1972.43589265;229.99999153;-0.00000896;4140.89743569;4301.15384630;4696.15384713;4304.87179501;4463.84615434;4202.56410250;4176.15384602;4205.12820506
4206.66666660;4203.97435891;4601.02564179;4235.64102564;4792.69230888;1970.51281572;-0.00000896;-0.00000896;4142.82051262;4305.76923091;4663.33333424;4304.48717963;4697.43589841;4203.46153840;4175.64102551;4205.12820506
4208.20512814;4203.20512814;4104.99999973;4234.87179488;4139.23076903;1972.05127726;229.99999153;-0.00000896;4168.46153833;4332.56410278;4104.87179460;4305.25641040;4108.97435870;4201.92307686;4174.48717935;4205.12820506
4205.64102558;4202.94871788;4431.66666709;4236.02564103;4336.66666688;1971.53845675;-0.00000896;-0.00000896;4168.46153833;4301.92307707;4404.87179522;4305.00000014;4368.46153874;4202.56410250;4176.28205115;4205.12820506
4206.02564096;4202.82051275;4666.15384706;4235.64102564;4629.61538545;1971.53845675;229.99999153;-0.00000896;4142.94871774;4273.58974366;4700.25641123;4303.97435912;4630.00000084;4203.84615378;4175.76923063;4205.12820506
4206.02564096;4202.43589737;4665.12820604;4235.64102564;4698.46153944;1944.10255924;-0.00000896;-0.00000896;4168.84615371;4303.33333348;4664.61538552;4305.25641040;4566.53846224;4203.33333327;4170.64102551;4205.12820506
4206.15384609;4202.43589737;4465.12820562;4235.38461539;4499.23076979;1971.02563623;229.99999153;-0.00000896;4168.20512807;4300.51282066;4437.43589786;4305.51282066;4370.76923105;4202.82051275;4175.76923063;4205.12820506
4205.12820506;4203.07692301;4335.64102585;4235.89743590;4469.74359023;1969.99999521;-0.00000896;-0.00000896;4143.20512800;4300.76923091;4497.82051338;4306.02564117;4372.30769259;4201.66666660;4176.02564089;4205.12820506
4206.15384609;4201.41025634;4402.82051317;4235.38461539;4108.97435870;1969.87179008;229.99999153;-0.00000896;4168.84615371;4304.35897450;4471.53846203;4305.76923091;4437.30769273;4203.20512814;4175.64102551;4205.12820506
4205.38461532;4201.92307686;4634.48718032;4236.02564103;4760.51282163;1974.10255931;-0.00000896;-0.00000896;4141.79487159;4270.38461546;4661.79487270;4304.87179501;4535.00000063;4202.94871788;4175.64102551;4205.12820506
4204.99999993;4203.20512814;4268.07692315;4235.12820513;4138.07692287;1973.46153367;229.99999153;-0.00000896;4142.69230749;4303.58974373;4273.84615392;4306.53846168;4274.23076930;4202.56410250;4175.51282038;4205.12820506
4203.58974352;4201.92307686;4366.92307720;4236.28205129;4369.74359003;1973.46153367;-0.00000896;-0.00000896;4141.92307672;4301.28205142;4399.10256445;4305.12820527;4565.12820583;4203.71794865;4175.51282038;4205.12820506
4205.38461532;4202.82051275;4108.20512793;4234.87179488;4071.15384581;1969.87179008;229.99999153;-0.00000896;4142.94871774;4304.74358989;4007.30769183;4306.92307707;4011.28205080;4201.28205122;4176.02564089;4205.12820506
4204.48717942;4202.94871788;4238.33333334;4236.53846154;4172.30769217;1972.30768752;35.76922188;-0.00000896;4142.94871774;4301.02564117;4402.30769266;4305.25641040;4206.15384609;4202.94871788;4202.56410250;4205.12820506
4204.35897429;4176.28205115;4467.17948767;4236.79487180;4430.89743632;1969.74358495;-0.00000896;-0.00000896;4142.17948697;4306.41025655;4502.56410312;4305.12820527;4435.38461581;4202.43589737;4176.28205115;4205.12820506
4203.97435891;4201.92307686;4890.51282191;4236.15384616;4501.02564159;1975.51281572;-0.00000896;-0.00000896;4142.43589723;4302.94871809;4795.25641144;4305.38461553;4796.28205247;4203.33333327;4175.89743576;4205.12820506
4203.46153840;4202.56410250;4398.97435933;4237.56410257;4465.76923126;1942.30768745;229.99999153;-0.00000896;4142.43589723;4306.15384630;4498.97435953;4305.00000014;4468.84615434;4202.17948711;4174.35897422;4205.12820506
4203.20512814;4202.05128199;4465.00000049;4237.17948718;4436.66666709;1970.64102085;229.99999153;-0.00000896;4141.92307672;4299.74358989;4667.30769321;4305.00000014;4500.64102620;4203.07692301;4175.76923063;4205.12820506
4204.48717942;4201.41025634;4502.69230825;4237.69230770;4729.35897541;1943.84614899;229.99999153;-0.00000896;4141.15384595;4273.46153853;4500.51282107;4304.61538476;4569.61538531;4202.69230763;4176.15384602;4205.12820506
4204.48717942;4201.66666660;4534.74359037;4237.30769231;4597.43589820;1971.66666188;229.99999153;-0.00000896;4141.15384595;4302.43589758;4601.15384692;4304.61538476;4499.10256466;4202.05128199;4175.76923063;4205.12820506
4203.71794865;4201.15384609;4469.74359023;4237.43589744;4500.89743646;1943.71794386;-0.00000896;-0.00000896;4140.76923056;4302.82051296;4435.51282093;4305.12820527;4403.97435933;4201.92307686;4175.76923063;4205.12820506
4205.38461532;4201.02564096;4501.41025697;4236.02564103;4399.48717984;1974.74358495;-0.00000896;-0.00000896;4141.92307672;4302.30769245;4432.05128247;4307.17948732;4434.61538504;4204.10256404;4175.12820499;4205.12820506
4204.87179481;4201.15384609;4467.05128254;4237.30769231;4405.38461574;1970.76922598;-0.00000896;-0.00000896;4141.41025621;4301.15384630;4498.33333389;4305.25641040;4367.94871823;4202.17948711;4201.02564096;4205.12820506
4205.12820506;4201.41025634;4597.69230846;4236.15384616;4633.58974443;1944.48717463;-0.00000896;-0.00000896;4143.07692287;4271.79487187;4536.79487242;4333.07692329;4500.76923133;4202.43589737;4175.12820499;4205.12820506
4204.23076917;4176.28205115;4135.89743569;4236.79487180;4076.15384581;1971.92307213;-0.00000896;-0.00000896;4141.15384595;4300.64102578;4267.82051289;4305.51282066;4168.58974345;4203.20512814;4175.51282038;4205.12820506
4204.23076917;4176.15384602;4601.53846231;4236.53846154;4697.17948816;1971.41025162;-0.00000896;-0.00000896;4141.53846133;4274.61538469;4665.00000091;4306.02564117;4698.33333431;4202.43589737;4175.76923063;4205.12820506
4204.23076917;4201.92307686;3977.43589688;4235.76923077;4006.15384567;1973.46153367;-0.00000896;-0.00000896;4140.76923056;4272.05128212;4107.94871767;4303.07692322;4008.20512772;4203.07692301;4175.89743576;4205.12820506
4203.97435891;4202.30769224;4305.76923091;4236.92307693;4267.17948725;1973.71794393;-0.00000896;-0.00000896;4141.41025621;4274.48717956;4234.35897436;4305.64102578;4368.20512849;4204.48717942;4174.10256397;4205.12820506
4203.71794865;4201.28205122;4469.61538511;4235.51282052;4469.61538511;1974.87179008;-0.00000896;-0.00000896;4139.10256390;4269.48717956;4340.38461560;4303.97435912;4698.20512918;4202.56410250;4175.12820499;4205.12820506
4204.35897429;4202.69230763;4072.30769196;4236.02564103;4042.05128164;1971.66666188;-0.00000896;-0.00000896;4140.76923056;4299.87179501;4071.92307658;4303.71794886;4009.10256362;4203.46153840;4175.38461525;4205.12820506
4204.87179481;4201.15384609;4269.35897443;4236.41025641;4404.74359009;1974.10255931;-0.00000896;-0.00000896;4140.38461518;4273.71794879;4597.43589820;4305.12820527;4238.97435898;4203.46153840;4175.38461525;4205.12820506
4204.87179481;4202.05128199;4469.61538511;4236.28205129;4301.02564117;1942.94871309;-0.00000896;-0.00000896;4140.38461518;4274.10256418;4432.56410298;4303.20512835;4533.71794935;4203.20512814;4175.89743576;4205.12820506
4204.23076917;4202.69230763;4497.30769287;4235.12820513;4270.00000007;1971.66666188;-0.00000896;-0.00000896;4140.38461518;4274.35897443;4435.89743632;4303.84615399;4531.28205191;4202.94871788;4175.51282038;4205.12820506
4204.87179481;4202.05128199;4302.82051296;4236.92307693;4401.28205163;1943.07691822;-0.00000896;-0.00000896;4141.41025621;4273.97435905;4240.64102564;4306.15384630;4303.33333348;4202.30769224;4176.02564089;4205.12820506
4204.23076917;4203.07692301;4600.51282128;4236.02564103;4531.15384678;1971.41025162;-0.00000896;-0.00000896;4139.35897415;4271.92307700;4597.30769308;4303.58974373;4464.74359023;4202.69230763;4175.12820499;4205.12820506
4204.74358968;4202.69230763;4662.56410347;4237.30769231;4531.53846217;1971.02563623;-0.00000896;-0.00000896;4142.17948697;4271.28205136;4567.56410326;4304.61538476;4732.69230874;4203.46153840;4175.76923063;4205.12820506
4205.38461532;4203.07692301;4501.92307748;4235.64102564;4438.07692350;1973.07691829;-0.00000896;-0.00000896;4138.84615364;4300.76923091;4565.76923147;4306.53846168;4470.51282100;4202.30769224;4175.25641012;4205.12820506
4205.64102558;4203.58974352;4598.58974436;4235.51282052;4497.94871851;1972.43589265;-0.00000896;-0.00000896;4137.69230749;4299.48717963;4471.28205177;4305.51282066;4662.82051373;4203.46153840;4175.51282038;4205.12820506
4205.76923070;4204.99999993;4142.82051262;4236.28205129;4269.61538469;1943.20512334;-0.00000896;-0.00000896;4139.10256390;4272.94871802;4238.84615385;4305.64102578;4104.35897408;4202.17948711;4174.61538448;4205.12820506
4206.41025634;4202.82051275;4731.15384720;4235.38461539;4500.38461594;1969.61537982;-0.00000896;-0.00000896;4141.15384595;4273.84615392;4569.10256480;4305.00000014;4734.10256515;4205.12820506;4175.38461525;4205.12820506
4206.41025634;4176.15384602;4075.51282017;4236.28205129;4074.35897402;1969.87179008;-0.00000896;-0.00000896;4142.56410236;4271.02564110;4202.94871788;4304.35897450;4202.56410250;4202.17948711;4174.10256397;4205.12820506
4205.38461532;4201.41025634;4466.53846203;4235.76923077;4468.84615434;1976.28204649;-0.00000896;-0.00000896;4140.51282031;4271.28205136;4339.23076944;4304.35897450;4336.66666688;4201.28205122;4175.51282038;4205.12820506
4205.25641019;4203.20512814;4596.79487256;4235.38461539;4663.07692398;1971.02563623;-0.00000896;-0.00000896;4140.38461518;4270.25641033;4635.38461622;4304.10256425;4565.38461608;4203.07692301;4175.89743576;4205.12820506
4204.35897429;4204.48717942;4370.25641054;4235.76923077;4500.64102620;1972.17948239;-0.00000896;-0.00000896;4140.76923056;4273.33333341;4665.38461629;4302.17948732;4463.71794921;4203.58974352;4175.38461525;4205.12820506
4204.61538455;4204.23076917;4596.15384692;4235.89743590;4437.17948760;1972.43589265;229.99999153;-0.00000896;4138.58974339;4271.15384623;4726.15384720;4305.38461553;4566.66666737;4202.82051275;4175.76923063;4205.12820506
4205.51282045;4203.58974352;4566.66666737;4234.87179488;4365.64102592;1972.82050803;-0.00000896;-0.00000896;4138.33333313;4274.35897443;4470.64102613;4303.46153860;4496.79487235;4203.20512814;4175.25641012;4205.12820506
4205.76923070;4202.94871788;4635.12820597;4235.38461539;4435.00000042;1971.53845675;-0.00000896;-0.00000896;4138.97435877;4306.66666681;4566.41025711;4303.84615399;4663.07692398;4203.71794865;4175.25641012;4205.12820506
4205.89743583;4203.20512814;4004.35897388;4235.25641026;4044.61538420;1943.07691822;34.87178598;-0.00000896;4139.23076903;4300.76923091;4007.56410208;4303.84615399;3876.53846078;4204.99999993;4175.25641012;4205.12820506
4206.92307686;4203.20512814;4993.46154006;4234.48717949;4892.82051421;1972.05127726;229.99999153;-0.00000896;4140.76923056;4274.10256418;4832.17948843;4303.46153860;4793.84615503;4201.79487173;4175.64102551;4205.12820506
4206.41025634;4202.05128199;4568.71794942;4234.74358975;4499.10256466;1972.82050803;229.99999153;-0.00000896;4142.56410236;4269.87179495;4497.56410312;4305.76923091;4628.07692391;4202.56410250;4174.61538448;4205.12820506
4205.38461532;4203.46153840;4562.05128275;4234.35897436;4399.10256445;1969.61537982;229.99999153;-0.00000896;4143.33333313;4303.07692322;4536.53846217;4332.69230790;4504.10256466;4203.58974352;4175.64102551;4205.12820506
4203.97435891;4202.94871788;4662.30769321;4237.17948718;4597.82051359;1971.28204649;229.99999153;-0.00000896;4141.79487159;4271.92307700;4499.74359030;4303.97435912;4760.64102676;4202.56410250;4175.76923063;4205.12820506
4205.38461532;4203.84615378;4238.58974359;4235.64102564;4170.12820499;1943.71794386;229.99999153;-0.00000896;4143.46153826;4304.35897450;4274.35897443;4305.89743604;4074.74358940;4202.82051275;4175.38461525;4205.12820506
4204.23076917;4203.33333327;4733.84615489;4236.15384616;4728.58974464;1972.30768752;229.99999153;-0.00000896;4140.89743569;4299.48717963;4662.17948809;4302.69230784;5059.61538636;4201.92307686;4175.25641012;4205.12820506
4204.87179481;4202.94871788;4300.25641040;4235.51282052;4463.84615434;1969.99999521;229.99999153;-0.00000896;4140.12820492;4303.71794886;4501.41025697;4305.51282066;4400.89743625;4204.35897429;4175.25641012;4205.12820506
4205.38461532;4203.20512814;4072.43589709;4236.66666667;4137.69230749;1971.41025162;229.99999153;-0.00000896;4138.33333313;4273.33333341;4208.71794865;4306.53846168;4241.79487180;4203.58974352;4174.23076910;4205.12820506
4204.35897429;4202.82051275;4436.15384657;4235.64102564;4530.64102627;1942.43589258;229.99999153;-0.00000896;4140.12820492;4274.74358982;4301.02564117;4307.30769245;4337.82051303;4201.79487173;4175.25641012;4205.12820506
4206.53846147;4176.28205115;4169.23076910;4236.02564103;3973.33333278;1972.05127726;229.99999153;-0.00000896;4140.51282031;4270.25641033;3909.48717880;4304.87179501;4169.61538448;4202.82051275;4175.76923063;4205.12820506
4205.76923070;4202.05128199;4699.74359072;4236.28205129;4759.48718060;1973.71794393;229.99999153;-0.00000896;4140.51282031;4274.10256418;4733.58974464;4304.87179501;4665.64102655;4201.92307686;4175.64102551;4205.12820506
4205.12820506;4202.69230763;4471.28205177;4235.76923077;4502.43589800;1970.12820034;229.99999153;-0.00000896;4138.20512800;4272.17948725;4731.53846258;4305.51282066;4498.33333389;4203.84615378;4175.25641012;4205.12820506
4205.51282045;4203.33333327;4103.71794844;4236.66666667;4235.12820513;1971.02563623;229.99999153;-0.00000896;4139.35897415;4272.82051289;4405.76923112;4306.53846168;4141.15384595;4203.58974352;4201.15384609;4205.12820506
4205.38461532;4203.20512814;4466.53846203;4236.15384616;4336.92307714;1973.20512341;229.99999153;-0.00000896;4139.10256390;4270.89743597;4304.10256425;4305.64102578;4432.94871837;4205.12820506;4175.12820499;4205.12820506
4204.87179481;4202.69230763;4432.05128247;4236.66666667;4337.30769252;1971.15384136;229.99999153;-0.00000896;4138.97435877;4300.12820527;4565.51282121;4305.38461553;4529.61538524;4203.20512814;4174.48717935;4205.12820506
4205.64102558;4203.46153840;4570.00000070;4235.89743590;4529.87179550;1971.28204649;229.99999153;-0.00000896;4137.94871774;4273.07692315;4797.30769349;4306.79487194;4665.38461629;4203.71794865;4175.38461525;4205.12820506
4205.38461532;4202.17948711;4404.10256445;4235.00000000;4304.74358989;1970.12820034;229.99999153;-0.00000896;4138.84615364;4273.33333341;4373.20512849;4304.10256425;4401.92307727;4203.20512814;4175.51282038;4205.12820506
4205.25641019;4203.20512814;4569.48718019;4235.51282052;4663.33333424;1971.28204649;229.99999153;-0.00000896;4138.07692287;4274.74358982;4565.00000070;4304.23076937;4434.87179529;4202.56410250;4175.51282038;4205.12820506
4205.12820506;4203.20512814;4730.25641130;4235.64102564;4661.28205219;1969.23076444;229.99999153;-0.00000896;4139.10256390;4300.38461553;4726.15384720;4305.12820527;4697.69230867;4202.56410250;4175.76923063;4205.12820506
4206.15384609;4201.92307686;4138.84615364;4233.97435898;4168.20512807;1972.94871316;229.99999153;-0.00000896;4140.76923056;4269.48717956;4075.76923043;4307.43589758;4075.12820478;4204.23076917;4175.51282038;4205.12820506
4205.12820506;4202.30769224;3846.53846071;4236.28205129;4005.76923029;1969.23076444;229.99999153;-0.00000896;4139.87179467;4273.20512828;4136.28205108;4307.05128219;3941.28205066;4203.71794865;4175.76923063;4205.12820506
4204.99999993;4203.46153840;4436.41025683;4235.89743590;4306.02564117;1944.48717463;229.99999153;-0.00000896;4140.25641005;4274.61538469;4466.53846203;4305.25641040;4404.74359009;4202.69230763;4175.51282038;4205.12820506
4203.97435891;4203.33333327;3976.79487124;4235.00000000;4110.64102537;1973.07691829;229.99999153;-0.00000896;4138.33333313;4300.64102578;4173.84615371;4306.66666681;4106.02564075;4203.46153840;4175.51282038;4205.12820506
4205.76923070;4203.07692301;4732.43589848;4235.38461539;4799.87179606;1944.10255924;229.99999153;-0.00000896;4139.87179467;4272.56410264;4923.97436044;4303.46153860;4794.23077042;4201.79487173;4176.28205115;4205.12820506
4205.64102558;4203.46153840;4570.12820583;4235.64102564;4662.69230860;1971.15384136;229.99999153;-0.00000896;4138.46153826;4274.61538469;4727.43589848;4304.87179501;4661.92307783;4203.33333327;4175.64102551;4205.12820506
4205.38461532;4202.43589737;3907.43589674;4235.51282052;3946.15384553;1971.66666188;229.99999153;-0.00000896;4139.74358954;4272.17948725;3977.94871740;4304.61538476;3913.58974290;4203.33333327;4175.64102551;4205.12820506
4205.38461532;4202.43589737;4564.87179557;4234.74358975;4498.71794928;1969.87179008;229.99999153;-0.00000896;4141.02564082;4302.56410271;4466.15384664;4306.15384630;4470.89743639;4203.58974352;4175.51282038;4205.12820506
4204.99999993;4203.20512814;4140.12820492;4235.12820513;4268.97435905;1970.89743111;229.99999153;-0.00000896;4140.38461518;4272.05128212;4110.51282024;4306.28205142;4071.79487145;4203.07692301;4175.51282038;4205.12820506
4204.35897429;4202.17948711;4962.05128358;4235.76923077;4633.46153930;1969.35896957;229.99999153;-0.00000896;4141.92307672;4300.38461553;4862.43589876;4305.25641040;4988.71795032;4203.71794865;4175.51282038;4205.12820506
4204.87179481;4202.30769224;4530.76923140;4235.64102564;4433.97435940;1972.17948239;229.99999153;-0.00000896;4141.66666646;4272.30769238;4468.46153895;4305.89743604;4666.92307783;4203.84615378;4201.53846147;4205.12820506
4204.35897429;4202.69230763;4465.76923126;4235.51282052;4332.69230790;1970.64102085;229.99999153;-0.00000896;4140.76923056;4271.28205136;4433.84615427;4305.64102578;4463.71794921;4202.43589737;4175.51282038;4205.12820506
4204.35897429;4203.20512814;4240.89743590;4236.53846154;4272.56410264;1969.48717470;229.99999153;-0.00000896;4139.87179467;4271.41025648;4268.84615392;4306.66666681;4372.17948746;4203.71794865;4175.51282038;4205.12820506
4204.74358968;4202.94871788;4102.69230742;4235.76923077;4102.82051255;1944.35896950;229.99999153;-0.00000896;4140.38461518;4272.30769238;4107.94871767;4305.38461553;4106.02564075;4203.33333327;4175.51282038;4205.12820506
4204.74358968;4203.20512814;4726.79487284;4235.12820513;4863.97436030;1974.35896957;72.43588861;-0.00000896;4137.56410236;4301.53846168;4825.12820638;4306.28205142;4792.17948836;4202.56410250;4202.56410250;4205.12820506
4205.12820506;4203.07692301;4503.84615441;4236.41025641;4499.48718005;1971.53845675;66.41024759;-0.00000896;4136.79487159;4270.38461546;4498.07692364;4304.74358989;4497.82051338;4203.33333327;4175.64102551;4205.12820506
4206.02564096;4204.35897429;4432.56410298;4235.89743590;4466.66666716;1942.94871309;229.99999153;-0.00000896;4137.82051262;4273.97435905;4599.10256487;4306.28205142;4563.71794942;4202.69230763;4175.64102551;4205.12820506
4206.66666660;4202.30769224;4369.61538490;4235.25641026;4237.43589744;1942.94871309;66.41024759;-0.00000896;4140.12820492;4301.41025655;4403.46153881;4304.74358989;4205.38461532;4202.43589737;4174.10256397;4205.12820506
4206.02564096;4201.02564096;4696.15384713;4234.35897436;4765.51282163;1972.69230290;-0.00000896;-0.00000896;4138.71794851;4271.79487187;4825.00000125;4305.00000014;4695.38461636;4201.41025634;4175.51282038;4205.12820506
4204.35897429;4202.43589737;4076.92307658;4235.76923077;4009.35897388;1969.99999521;-0.00000896;-0.00000896;4139.35897415;4271.92307700;4004.61538413;4307.30769245;4038.58974318;4201.79487173;4175.89743576;4205.12820506
4204.35897429;4203.84615378;4174.61538448;4235.38461539;4169.48717935;1974.48717470;-0.00000896;-0.00000896;4138.97435877;4299.48717963;4037.30769189;4302.82051296;4238.07692308;4202.05128199;4175.38461525;4205.12820506
4204.35897429;4203.71794865;4435.12820555;4235.64102564;4235.25641026;1971.53845675;-0.00000896;-0.00000896;4138.58974339;4274.48717956;4398.71794907;4304.48717963;4402.69230804;4203.07692301;4201.28205122;4205.12820506
4203.97435891;4203.58974352;4568.46153916;4234.87179488;4628.07692391;1971.02563623;-0.00000896;-0.00000896;4138.97435877;4301.79487194;4794.74359093;4303.71794886;4633.97435981;4203.07692301;4174.99999986;4205.12820506
4203.84615378;4203.97435891;4471.28205177;4236.41025641;4334.74358996;1972.56409777;-0.00000896;-0.00000896;4137.30769210;4274.35897443;4399.35897471;4302.94871809;4273.33333341;4202.69230763;4175.25641012;4205.12820506
4205.25641019;4203.07692301;4635.25641109;4234.61538462;4600.89743667;1970.76922598;-0.00000896;-0.00000896;4138.71794851;4299.48717963;4662.94871886;4304.61538476;4728.46153951;4203.84615378;4175.51282038;4205.12820506
4205.12820506;4202.94871788;4370.00000028;4235.00000000;4206.28205122;1971.79486700;-0.00000896;-0.00000896;4139.10256390;4272.17948725;4563.33333403;4303.97435912;4471.53846203;4203.58974352;4201.53846147;4205.12820506
4206.02564096;4202.43589737;4303.20512835;4235.64102564;4398.07692343;1943.71794386;-0.00000896;-0.00000896;4139.99999980;4300.51282066;4436.28205170;4305.76923091;4370.76923105;4203.58974352;4174.99999986;4205.12820506
4206.15384609;4202.56410250;4760.76923188;4234.61538462;4499.10256466;1974.87179008;-0.00000896;-0.00000896;4140.51282031;4300.25641040;4693.84615482;4305.00000014;4727.56410361;4202.82051275;4175.12820499;4205.12820506
4205.12820506;4202.69230763;4236.92307693;4236.41025641;4235.00000000;1972.05127726;-0.00000896;-0.00000896;4141.79487159;4270.25641033;4206.02564096;4305.12820527;4204.61538455;4203.71794865;4201.28205122;4205.12820506
4205.38461532;4201.92307686;4142.82051262;4235.64102564;4138.97435877;1970.64102085;-0.00000896;-0.00000896;4141.15384595;4274.61538469;4104.61538434;4305.64102578;4204.10256404;4202.94871788;4175.51282038;4205.12820506
4204.23076917;4201.92307686;4497.43589800;4236.28205129;4435.64102606;1971.53845675;-0.00000896;-0.00000896;4140.25641005;4274.48717956;4402.94871830;4305.51282066;4600.64102641;4203.97435891;4174.23076910;4205.12820506
4204.10256404;4202.43589737;4237.56410257;4235.64102564;4172.30769217;1973.84614906;-0.00000896;-0.00000896;4138.97435877;4270.12820520;4238.33333334;4306.79487194;4562.56410326;4202.94871788;4175.51282038;4205.12820506
4205.89743583;4201.28205122;4168.20512807;4236.15384616;4235.76923077;1970.89743111;-0.00000896;-0.00000896;4137.82051262;4273.07692315;4202.82051275;4305.89743604;4011.15384567;4204.61538455;4208.20512814;4205.12820506
4204.35897429;4203.71794865;4665.25641116;4235.89743590;4534.61538524;1971.66666188;-0.00000896;-0.00000896;4136.92307672;4274.10256418;4666.15384706;4303.71794886;4827.30769356;4203.58974352;4175.89743576;4205.12820506
4204.10256404;4203.07692301;4173.97435884;4236.53846154;4236.28205129;1942.05127719;-0.00000896;-0.00000896;4137.82051262;4274.10256418;4103.33333306;4303.58974373;4109.61538434;4203.84615378;4175.38461525;4205.12820506
4205.25641019;4202.43589737;4338.07692329;4235.64102564;4340.00000021;1971.53845675;-0.00000896;-0.00000896;4138.71794851;4271.02564110;4332.30769252;4305.12820527;4238.97435898;4204.10256404;4175.25641012;4205.12820506
4204.87179481;4202.56410250;4405.51282086;4236.28205129;4365.25641054;1972.69230290;-0.00000896;-0.00000896;4139.23076903;4272.05128212;4496.41025697;4305.25641040;4470.64102613;4203.20512814;4174.74358961;4205.12820506
4204.61538455;4203.58974352;4564.61538531;4237.05128206;4630.64102648;1971.53845675;-0.00000896;-0.00000896;4138.97435877;4271.15384623;4825.89743715;4303.84615399;4698.71794969;4202.82051275;4172.82051269;4205.12820506
4205.51282045;4202.30769224;4627.82051366;4235.76923077;4634.61538545;1972.69230290;-0.00000896;-0.00000896;4138.71794851;4271.41025648;4696.66666764;4306.79487194;4597.69230846;4202.69230763;4175.51282038;4205.12820506
4205.12820506;4202.56410250;4005.51282003;4237.17948718;4139.35897415;1970.51281572;-0.00000896;-0.00000896;4138.46153826;4273.07692315;4076.28205094;4306.53846168;4076.28205094;4204.10256404;4174.35897422;4205.12820506
4205.25641019;4203.84615378;4431.02564145;4236.66666667;4370.51282079;1969.99999521;-0.00000896;-0.00000896;4136.02564082;4274.10256418;4470.51282100;4306.66666681;4431.53846196;4203.58974352;4174.99999986;4205.12820506
4205.38461532;4202.94871788;4567.94871865;4236.53846154;4529.35897499;1970.51281572;-0.00000896;-0.00000896;4136.28205108;4274.10256418;4825.51282177;4305.12820527;4695.76923175;4202.43589737;4203.58974352;4205.12820506
4205.64102558;4201.15384609;4599.87179564;4236.02564103;4601.66666743;1972.30768752;229.99999153;-0.00000896;4136.02564082;4273.33333341;4634.48718032;4304.74358989;4501.66666723;4203.58974352;4175.25641012;4205.12820506
4206.02564096;4201.92307686;4730.00000105;4235.25641026;4700.89743687;1970.25640547;229.99999153;-0.00000896;4137.05128185;4271.28205136;4471.02564152;4304.74358989;4467.43589793;4203.71794865;4175.51282038;4205.12820506
4205.76923070;4201.41025634;4104.35897408;4236.66666667;4203.33333327;1973.97435418;229.99999153;-0.00000896;4138.46153826;4274.23076930;4202.82051275;4305.76923091;4174.35897422;4202.94871788;4175.51282038;4205.12820506
4203.46153840;4202.30769224;4401.28205163;4235.51282052;4272.05128212;1970.89743111;229.99999153;-0.00000896;4137.05128185;4269.35897443;4337.94871816;4304.74358989;4333.97435919;4202.82051275;4175.51282038;4205.12820506
4203.58974352;4201.66666660;4729.23077028;4235.38461539;4694.87179585;1971.41025162;-0.00000896;-0.00000896;4136.92307672;4271.28205136;4666.28205219;4305.89743604;4630.25641109;4204.99999993;4174.99999986;4205.12820506
4203.46153840;4201.28205122;4864.35897568;4235.51282052;4795.38461657;1972.30768752;-0.00000896;-0.00000896;4110.64102537;4271.92307700;4569.87179557;4305.89743604;4631.79487263;4203.20512814;4174.48717935;4205.12820506
4203.58974352;4201.79487173;4110.51282024;4235.89743590;4074.61538427;1970.38461059;229.99999153;-0.00000896;4135.38461518;4273.07692315;4169.61538448;4305.00000014;4176.28205115;4205.25641019;4201.41025634;4205.12820506
4202.94871788;4202.17948711;4339.10256431;4235.00000000;4403.97435933;1971.15384136;-0.00000896;-0.00000896;4135.51282031;4301.53846168;4334.10256431;4305.76923091;4203.07692301;4202.05128199;4175.64102551;4205.12820506
4204.74358968;4202.69230763;4137.43589723;4236.28205129;4109.23076896;1971.28204649;229.99999153;-0.00000896;4135.76923056;4270.76923084;4307.17948732;4305.25641040;4170.64102551;4205.25641019;4176.28205115;4205.12820506
4204.10256404;4202.43589737;4267.56410264;4235.00000000;4174.61538448;1970.38461059;-0.00000896;-0.00000896;4137.69230749;4302.94871809;4170.64102551;4304.61538476;4240.64102564;4203.97435891;4175.64102551;4205.12820506
4204.87179481;4203.20512814;4171.66666653;4235.76923077;4234.23076923;1971.66666188;229.99999153;-0.00000896;4136.41025621;4270.76923084;4268.71794879;4305.51282066;4103.71794844;4202.43589737;4175.76923063;4205.12820506
4204.99999993;4203.46153840;4628.20512904;4235.76923077;4596.28205205;1970.64102085;-0.00000896;-0.00000896;4136.92307672;4272.56410264;4438.07692350;4305.25641040;4726.92307797;4201.15384609;4174.99999986;4205.12820506
4205.38461532;4202.56410250;4176.28205115;4234.35897436;4239.74358975;1971.92307213;229.99999153;-0.00000896;4137.43589723;4273.07692315;4267.94871802;4304.61538476;4139.48717928;4204.10256404;4175.25641012;4205.12820506
4205.25641019;4203.84615378;4174.23076910;4235.89743590;4138.33333313;1974.23076444;-0.00000896;-0.00000896;4139.35897415;4271.15384623;4138.71794851;4305.38461553;4141.66666646;4203.07692301;4175.76923063;4205.12820506
4204.35897429;4203.07692301;4171.02564089;4236.41025641;4011.15384567;1970.89743111;229.99999153;-0.00000896;4139.10256390;4269.48717956;4103.58974332;4307.30769245;4138.97435877;4203.84615378;4175.25641012;4205.12820506
4204.61538455;4203.46153840;4566.79487249;4235.00000000;4532.82051345;1969.74358495;-0.00000896;-0.00000896;4138.33333313;4300.12820527;4730.25641130;4306.28205142;4566.79487249;4203.58974352;4175.12820499;4205.12820506
4204.74358968;4202.69230763;4665.76923168;4236.41025641;4601.92307769;1971.41025162;229.99999153;-0.00000896;4137.82051262;4270.38461546;4795.51282170;4306.02564117;4762.69230881;4202.43589737;4174.99999986;4205.12820506
4204.10256404;4203.46153840;4695.51282149;4235.89743590;4661.28205219;1972.69230290;-0.00000896;-0.00000896;4137.05128185;4274.10256418;4437.94871837;4304.35897450;4403.58974394;4204.35897429;4173.84615371;4205.12820506
4205.76923070;4203.84615378;4696.28205226;4235.76923077;4469.87179536;1972.94871316;229.99999153;-0.00000896;4110.12820485;4271.53846161;4699.35897534;4303.58974373;4828.46153972;4203.33333327;4175.12820499;4205.12820506
4204.61538455;4204.48717942;4434.61538504;4236.66666667;4531.53846217;1938.84614899;-0.00000896;-0.00000896;4136.28205108;4272.82051289;4601.79487256;4303.97435912;4338.20512842;4204.48717942;4176.28205115;4205.12820506
4204.74358968;4202.56410250;4698.84615482;4236.15384616;4596.28205205;1944.35896950;229.99999153;-0.00000896;4136.02564082;4274.61538469;4667.82051373;4304.10256425;4628.46153930;4203.97435891;4175.38461525;4205.12820506
4205.38461532;4176.02564089;4597.56410333;4235.89743590;4566.79487249;1941.92307206;-0.00000896;-0.00000896;4136.66666646;4272.43589751;4372.82051310;4304.48717963;4504.23076979;4204.10256404;4174.74358961;4205.12820506
4204.61538455;4202.43589737;4400.12820548;4234.74358975;4302.94871809;1974.74358495;229.99999153;-0.00000896;4137.43589723;4272.69230777;4498.84615441;4305.12820527;4700.89743687;4203.58974352;4175.51282038;4205.12820506
4203.97435891;4202.56410250;4466.53846203;4235.00000000;4469.74359023;1975.38461059;-0.00000896;-0.00000896;4136.53846133;4268.07692315;4668.46153937;4305.51282066;4629.10256494;4201.28205122;4175.64102551;4205.12820506
4204.10256404;4204.10256404;4138.46153826;4235.89743590;4138.58974339;1972.82050803;229.99999153;-0.00000896;4136.53846133;4272.69230777;4044.99999959;4305.64102578;4043.33333292;4202.43589737;4175.25641012;4205.12820506
4203.84615378;4204.10256404;4038.07692266;4236.02564103;4176.15384602;1976.41025162;-0.00000896;-0.00000896;4135.76923056;4273.58974366;4004.10256362;4304.87179501;4040.76923036;4204.35897429;4175.38461525;4205.12820506
4203.71794865;4204.48717942;4303.84615399;4234.48717949;4334.87179508;1973.20512341;229.99999153;-0.00000896;4110.51282024;4273.33333341;4267.94871802;4306.41025655;4141.02564082;4202.94871788;4175.64102551;4205.12820506
4204.99999993;4203.71794865;4404.74359009;4235.51282052;4535.51282114;1972.05127726;-0.00000896;-0.00000896;4136.41025621;4273.84615392;4535.51282114;4306.15384630;4468.71794921;4203.20512814;4175.76923063;4205.12820506
4204.87179481;4202.82051275;4234.23076923;4234.74358975;4202.69230763;1969.74358495;229.99999153;-0.00000896;4137.56410236;4270.64102571;4268.71794879;4304.61538476;4237.82051282;4202.69230763;4201.41025634;4205.12820506
4206.02564096;4202.30769224;4569.61538531;4234.23076923;4632.94871879;1970.76922598;-0.00000896;-0.00000896;4138.71794851;4273.07692315;4701.15384713;4305.64102578;4598.07692385;4203.46153840;4175.38461525;4205.12820506
4205.51282045;4202.43589737;4103.84615357;4234.87179488;4136.92307672;1970.76922598;229.99999153;-0.00000896;4139.48717928;4271.53846161;4141.53846133;4304.74358989;4108.33333306;4204.23076917;4173.97435884;4205.12820506
4205.25641019;4203.46153840;4267.94871802;4234.48717949;4336.41025662;1971.53845675;-0.00000896;-0.00000896;4139.23076903;4272.69230777;4240.00000000;4304.61538476;4333.33333355;4202.43589737;4174.99999986;4205.12820506
4206.28205122;4201.79487173;4697.82051380;4235.76923077;4567.05128275;1971.66666188;229.99999153;-0.00000896;4139.87179467;4268.84615392;4601.79487256;4305.64102578;4765.12820624;4202.56410250;4175.12820499;4205.12820506
4205.51282045;4203.07692301;4041.15384574;4235.64102564;4138.46153826;1943.07691822;-0.00000896;-0.00000896;4140.51282031;4271.15384623;4006.92307644;4305.25641040;3979.35897381;4203.20512814;4175.38461525;4205.12820506
4204.74358968;4202.30769224;4175.25641012;4236.02564103;4334.48717970;1973.84614906;-0.00000896;-0.00000896;4138.97435877;4273.84615392;4438.58974401;4305.51282066;4271.92307700;4203.20512814;4173.97435884;4205.12820506
4204.61538455;4203.58974352;4630.89743674;4237.69230770;4497.30769287;1972.17948239;-0.00000896;-0.00000896;4136.92307672;4271.92307700;4569.48718019;4304.23076937;4564.87179557;4203.33333327;4175.51282038;4205.12820506
4204.48717942;4203.71794865;4468.58974408;4237.82051282;4468.46153895;1944.23076437;229.99999153;-0.00000896;4138.07692287;4273.84615392;4498.07692364;4306.15384630;4369.10256438;4202.17948711;4175.38461525;4205.12820506
4204.61538455;4202.94871788;4762.94871906;4236.41025641;4760.76923188;1943.84614899;229.99999153;-0.00000896;4135.76923056;4300.12820527;4693.58974457;4305.89743604;4695.38461636;4201.15384609;4174.99999986;4205.12820506
4206.28205122;4201.53846147;4629.61538545;4236.79487180;4696.15384713;1969.74358495;229.99999153;-0.00000896;4137.05128185;4272.43589751;4502.17948774;4306.15384630;4438.84615427;4203.33333327;4175.38461525;4205.12820506
4204.48717942;4202.05128199;3978.84615329;4236.02564103;4138.20512800;1973.71794393;229.99999153;-0.00000896;4135.64102544;4272.94871802;4140.51282031;4305.38461553;4104.99999973;4203.46153840;4175.25641012;4205.12820506
4205.25641019;4202.69230763;4369.87179515;4235.51282052;4168.97435884;1971.92307213;-0.00000896;-0.00000896;4110.12820485;4271.79487187;4399.87179522;4305.51282066;4466.15384664;4204.23076917;4174.87179474;4205.12820506
4205.64102558;4203.71794865;4041.15384574;4236.02564103;4106.92307665;1969.87179008;-0.00000896;-0.00000896;4110.25640998;4271.92307700;3975.89743535;4304.35897450;3912.30769162;4201.92307686;4201.92307686;4205.12820506
4205.38461532;4203.20512814;4202.43589737;4235.00000000;4208.97435891;1972.69230290;-0.00000896;-0.00000896;4109.87179460;4274.23076930;4109.35897408;4305.76923091;4168.71794858;4203.07692301;4175.25641012;4205.12820506
4204.23076917;4203.97435891;4861.79487312;4236.15384616;4566.28205198;1970.12820034;-0.00000896;-0.00000896;4109.35897408;4270.38461546;4664.87179578;4305.12820527;4696.02564200;4202.94871788;4175.12820499;4205.12820506
4205.89743583;4203.07692301;4141.66666646;4234.10256411;4168.84615371;1970.25640547;-0.00000896;-0.00000896;4136.79487159;4273.33333341;4108.46153819;4303.58974373;4173.84615371;4203.84615378;4175.38461525;4205.12820506
4204.61538455;4203.46153840;4398.71794907;4235.12820513;4332.94871816;1971.53845675;-0.00000896;-0.00000896;4136.28205108;4271.41025648;4499.35897492;4304.87179501;4300.64102578;4203.46153840;4202.82051275;4205.12820506
4204.99999993;4203.33333327;4501.15384671;4235.38461539;4563.20512890;1970.64102085;-0.00000896;-0.00000896;4137.56410236;4273.33333341;4668.58974450;4304.87179501;4693.71794969;4202.05128199;4174.99999986;4205.12820506
4204.87179481;4203.20512814;4238.97435898;4235.38461539;4173.84615371;1969.61537982;-0.00000896;-0.00000896;4137.05128185;4299.74358989;4106.53846126;4305.12820527;4204.10256404;4203.58974352;4172.43589730;4205.12820506
4204.35897429;4202.94871788;4240.76923077;4235.00000000;4371.53846182;1942.30768745;-0.00000896;-0.00000896;4138.46153826;4300.25641040;4366.02564131;4306.15384630;4268.20512828;4203.84615378;4175.64102551;4205.12820506
4205.25641019;4203.71794865;4562.05128275;4235.76923077;4404.23076958;1973.71794393;-0.00000896;-0.00000896;4137.94871774;4271.28205136;4632.17948802;4305.00000014;4569.23076993;4203.33333327;4175.38461525;4205.12820506
4204.87179481;4203.20512814;4497.56410312;4235.00000000;4400.89743625;1970.64102085;-0.00000896;-0.00000896;4136.02564082;4271.92307700;4496.92307748;4304.74358989;4532.69230832;4202.69230763;4175.12820499;4205.12820506
4204.99999993;4203.58974352;4862.43589876;4236.15384616;4667.56410347;1972.17948239;-0.00000896;-0.00000896;4136.02564082;4300.12820527;4729.35897541;4332.30769252;4764.23077035;4203.71794865;4175.25641012;4205.12820506
4203.71794865;4203.33333327;4537.30769294;4236.66666667;4568.46153916;1972.43589265;-0.00000896;-0.00000896;4136.02564082;4270.89743597;4300.00000014;4305.00000014;4432.30769273;4203.20512814;4173.07692294;4205.12820506
4205.12820506;4203.46153840;4726.79487284;4235.51282052;4563.46153916;1971.41025162;-0.00000896;-0.00000896;4136.02564082;4273.71794879;4634.23077007;4306.15384630;4599.35897513;4203.97435891;4175.51282038;4205.12820506
4204.87179481;4203.07692301;4269.48717956;4236.28205129;4142.30769210;1972.17948239;-0.00000896;-0.00000896;4135.64102544;4271.02564110;4535.00000063;4305.51282066;4497.05128261;4203.20512814;4175.64102551;4205.12820506
4205.12820506;4203.07692301;4562.56410326;4235.38461539;4467.94871844;1972.30768752;-0.00000896;-0.00000896;4135.89743569;4268.07692315;4793.33333452;4303.58974373;4600.76923154;4204.99999993;4175.12820499;4205.12820506
4205.38461532;4203.07692301;4595.38461615;4236.28205129;4631.92307776;1971.92307213;-0.00000896;-0.00000896;4136.66666646;4271.15384623;4695.89743687;4305.00000014;4660.89743680;4203.33333327;4172.69230756;4205.12820506
4204.61538455;4202.82051275;4299.61538476;4236.53846154;4206.53846147;1971.02563623;-0.00000896;-0.00000896;4135.51282031;4270.12820520;4274.74358982;4306.92307707;4370.25641054;4201.92307686;4175.25641012;4205.12820506
4204.23076917;4203.20512814;4006.79487131;4235.51282052;4010.76923029;1944.10255924;-0.00000896;-0.00000896;4136.92307672;4270.76923084;3944.74358912;4305.51282066;4108.84615357;4203.71794865;4201.92307686;4205.12820506
4204.48717942;4203.46153840;4436.28205170;4236.02564103;4306.28205142;1944.48717463;-0.00000896;-0.00000896;4136.79487159;4274.61538469;4272.43589751;4304.10256425;4366.92307720;4203.84615378;4175.64102551;4205.12820506
4204.35897429;4202.94871788;4726.53846258;4236.53846154;4532.17948781;2004.61537989;-0.00000896;-0.00000896;4137.30769210;4240.89743590;4666.79487270;4306.28205142;4732.05128310;4202.56410250;4174.35897422;4205.12820506
4204.61538455;4202.82051275;4074.61538427;4235.12820513;4135.51282031;1972.69230290;-0.00000896;-0.00000896;4135.89743569;4269.10256418;4072.56410222;4304.74358989;4038.20512779;4203.97435891;4175.51282038;4205.12820506
4204.87179481;4204.23076917;4731.79487284;4236.53846154;4760.12820624;1970.25640547;-0.00000896;-0.00000896;4108.97435870;4272.30769238;4890.38461678;4305.00000014;4699.48718046;4202.05128199;4174.87179474;4205.12820506
4205.76923070;4203.71794865;4437.94871837;4235.89743590;4404.10256445;1941.79486693;-0.00000896;-0.00000896;4135.89743569;4271.02564110;4437.56410298;4306.15384630;4400.64102599;4204.48717942;4201.92307686;4205.12820506
4205.51282045;4201.92307686;4207.94871788;4235.51282052;4267.05128212;1944.48717463;229.99999153;-0.00000896;4136.53846133;4268.33333341;4304.61538476;4304.23076937;4241.66666667;4203.07692301;4175.76923063;4205.12820506
4205.25641019;4176.15384602;4791.92307811;4236.15384616;4732.43589848;1969.74358495;-0.00000896;-0.00000896;4135.76923056;4273.33333341;4568.33333403;4304.35897450;4501.79487235;4203.97435891;4175.38461525;4205.12820506
4204.99999993;4202.17948711;3978.58974304;4235.25641026;4070.12820478;1974.99999521;-0.00000896;-0.00000896;4135.89743569;4269.35897443;4174.10256397;4305.38461553;4208.58974352;4203.71794865;4174.99999986;4205.12820506
4204.74358968;4201.92307686;4667.82051373;4235.51282052;4596.28205205;1973.58973880;-0.00000896;-0.00000896;4136.15384595;4268.46153853;4464.87179536;4306.92307707;4464.48717998;4203.46153840;4175.64102551;4205.12820506
4204.87179481;4202.94871788;4503.58974415;4235.38461539;4536.92307755;1977.05127726;229.99999153;-0.00000896;4109.23076896;4268.58974366;4600.76923154;4306.66666681;4562.56410326;4202.82051275;4175.64102551;4205.12820506
4203.84615378;4203.84615378;4076.28205094;4235.38461539;4006.53846106;1971.02563623;229.99999153;-0.00000896;4109.48717921;4269.87179495;3943.58974297;4305.76923091;3877.56410180;4203.20512814;4176.28205115;4205.12820506
4205.38461532;4202.43589737;4661.41025732;4235.89743590;4700.12820610;1974.35896957;229.99999153;-0.00000896;4109.35897408;4271.02564110;4957.82051435;4305.25641040;4734.23077028;4202.94871788;4175.64102551;4205.12820506
4205.12820506;4202.56410250;4340.00000021;4235.51282052;4306.02564117;1969.61537982;229.99999153;-0.00000896;4109.35897408;4299.87179501;4470.76923126;4305.25641040;4366.15384644;4202.56410250;4174.74358961;4205.12820506
4206.02564096;4202.43589737;4465.38461587;4235.00000000;4469.87179536;1970.25640547;229.99999153;-0.00000896;4109.99999973;4267.17948725;4466.02564152;4306.53846168;4501.28205184;4203.46153840;4175.51282038;4205.12820506
4205.25641019;4202.82051275;4438.20512863;4235.51282052;4206.15384609;1969.61537982;229.99999153;-0.00000896;4136.41025621;4272.94871802;4463.58974408;4304.23076937;4468.71794921;4203.33333327;4175.25641012;4205.12820506
4206.66666660;4202.82051275;4693.58974457;4236.02564103;4630.76923161;1971.66666188;229.99999153;-0.00000896;4138.33333313;4269.48717956;4727.69230874;4306.66666681;4761.53846265;4202.30769224;4202.05128199;4205.12820506
4206.41025634;4202.94871788;4070.12820478;4234.87179488;3912.30769162;1969.23076444;229.99999153;-0.00000896;4137.82051262;4272.43589751;3977.94871740;4304.61538476;3908.97435828;4203.20512814;4175.64102551;4205.12820506
4206.53846147;4202.43589737;4863.33333466;4236.41025641;4929.35897582;1972.94871316;229.99999153;-0.00000896;4137.17948697;4270.25641033;4825.38461664;4332.43589765;4693.71794969;4203.97435891;4175.25641012;4205.12820506
4206.53846147;4202.43589737;4595.12820590;4235.51282052;4401.15384651;1970.38461059;229.99999153;-0.00000896;4137.56410236;4270.64102571;4438.20512863;4304.23076937;4502.30769287;4203.07692301;4174.87179474;4205.12820506
4205.64102558;4203.46153840;4208.58974352;4236.79487180;4398.84615420;1972.30768752;229.99999153;-0.00000896;4136.28205108;4273.20512828;4241.41025641;4306.66666681;4168.58974345;4202.30769224;4202.43589737;4205.12820506
4206.02564096;4202.94871788;4339.74358996;4236.02564103;4236.92307693;1973.07691829;229.99999153;-0.00000896;4110.12820485;4269.87179495;4369.48717977;4306.15384630;4471.41025690;4203.07692301;4175.38461525;4205.12820506
4206.66666660;4203.46153840;4368.07692336;4237.05128206;4499.74359030;1969.23076444;229.99999153;-0.00000896;4109.74358947;4301.15384630;4761.02564214;4306.15384630;4496.66666723;4204.99999993;4202.69230763;4205.12820506
4206.79487173;4202.17948711;4463.71794921;4236.66666667;4435.25641068;1943.46153360;229.99999153;-0.00000896;4135.38461518;4272.05128212;4502.82051338;4305.76923091;4435.76923119;4202.69230763;4175.51282038;4205.12820506
4206.79487173;4201.92307686;4503.84615441;4236.53846154;4631.02564186;1971.92307213;229.99999153;-0.00000896;4110.25640998;4268.33333341;4438.07692350;4305.64102578;4501.28205184;4204.99999993;4202.05128199;4205.12820506
4206.02564096;4203.20512814;4502.94871851;4236.15384616;4371.41025669;1969.23076444;229.99999153;-0.00000896;4109.48717921;4273.07692315;4434.61538504;4305.76923091;4300.25641040;4202.05128199;4175.51282038;4205.12820506
4205.38461532;4204.35897429;4627.69230853;4236.15384616;4731.41025746;1973.33332854;229.99999153;-0.00000896;4135.51282031;4270.38461546;4667.30769321;4306.15384630;4628.97435981;4204.23076917;4174.99999986;4205.12820506
4205.51282045;4203.97435891;4201.41025634;4236.92307693;4136.02564082;1969.87179008;229.99999153;-0.00000896;4109.23076896;4270.89743597;4238.97435898;4304.87179501;4174.48717935;4203.97435891;4201.28205122;4205.12820506
4205.51282045;4203.84615378;3843.71794789;4236.41025641;4009.35897388;1972.69230290;229.99999153;-0.00000896;4108.58974332;4273.97435905;4073.07692273;4305.25641040;4136.92307672;4201.66666660;4175.12820499;4205.12820506
4205.25641019;4203.07692301;4533.20512883;4237.30769231;4503.58974415;1970.76922598;229.99999153;-0.00000896;4106.79487152;4272.30769238;4501.15384671;4306.28205142;4435.38461581;4205.25641019;4175.12820499;4205.12820506
4205.64102558;4202.56410250;3909.35897367;4235.00000000;3978.46153791;1972.05127726;229.99999153;-0.00000896;4109.48717921;4272.69230777;3845.38461455;4306.15384630;3844.35897353;4203.33333327;4174.99999986;4205.12820506
4204.23076917;4203.84615378;4236.79487180;4236.15384616;4206.41025634;1944.48717463;229.99999153;-0.00000896;4108.07692280;4271.79487187;4235.38461539;4306.15384630;4171.28205115;4204.10256404;4175.12820499;4205.12820506
4204.74358968;4203.20512814;4597.94871872;4235.00000000;4663.46153937;1972.05127726;229.99999153;-0.00000896;4135.89743569;4272.05128212;4564.10256480;4306.79487194;4696.79487277;4203.84615378;4175.76923063;4205.12820506
4203.46153840;4203.33333327;3905.89743521;4234.35897436;3909.35897367;1973.20512341;229.99999153;-0.00000896;4109.74358947;4269.74358982;3939.74358912;4306.53846168;4043.07692266;4203.84615378;4176.28205115;4205.12820506
4203.20512814;4202.43589737;4595.76923154;4234.87179488;4433.71794914;1970.25640547;229.99999153;-0.00000896;4109.61538434;4272.82051289;4469.35897485;4305.38461553;4500.38461594;4204.87179481;4175.38461525;4205.12820506
4202.82051275;4203.20512814;4567.05128275;4233.84615385;4437.17948760;1969.61537982;229.99999153;-0.00000896;4107.82051255;4268.46153853;4567.17948788;4305.89743604;4504.23076979;4204.10256404;4176.28205115;4205.12820506
4203.33333327;4202.30769224;4859.61538594;4233.84615385;4533.20512883;1970.64102085;229.99999153;-0.00000896;4108.07692280;4274.61538469;4734.10256515;4304.23076937;4731.53846258;4204.35897429;4175.38461525;4205.12820506
4204.10256404;4202.82051275;4632.94871879;4234.35897436;4597.17948795;1971.79486700;229.99999153;-0.00000896;4107.56410229;4272.30769238;4498.58974415;4306.79487194;4797.82051401;4203.84615378;4175.38461525;4205.12820506
4205.12820506;4202.69230763;4108.97435870;4234.48717949;4267.05128212;1970.38461059;229.99999153;-0.00000896;4109.99999973;4299.48717963;4206.41025634;4303.84615399;4044.35897395;4204.23076917;4205.25641019;4205.12820506
4205.12820506;4203.33333327;4402.43589779;4234.61538462;4267.94871802;1970.76922598;229.99999153;-0.00000896;4110.25640998;4273.97435905;4338.58974380;4303.97435912;4239.87179488;4203.20512814;4175.25641012;4205.12820506
4206.41025634;4202.94871788;4302.17948732;4235.12820513;4370.25641054;1970.89743111;229.99999153;-0.00000896;4136.79487159;4272.56410264;4567.56410326;4304.61538476;4368.97435926;4201.41025634;4175.38461525;4205.12820506
4206.02564096;4203.33333327;4862.82051414;4235.12820513;4726.79487284;1973.84614906;229.99999153;-0.00000896;4137.43589723;4272.30769238;4700.76923175;4302.94871809;4662.05128296;4203.97435891;4175.64102551;4205.12820506
4205.89743583;4202.69230763;4566.02564172;4235.12820513;4436.79487222;1971.79486700;229.99999153;-0.00000896;4137.82051262;4267.82051289;4633.20512904;4307.05128219;4567.82051352;4202.43589737;4174.48717935;4205.12820506
4204.74358968;4203.07692301;4469.87179536;4235.51282052;4499.35897492;1972.17948239;-0.00000896;-0.00000896;4137.94871774;4272.94871802;4470.38461587;4303.97435912;4434.87179529;4204.35897429;4175.51282038;4205.12820506
4204.61538455;4203.33333327;4235.51282052;4235.89743590;4138.97435877;1969.99999521;-0.00000896;-0.00000896;4136.92307672;4271.15384623;4498.84615441;4306.92307707;4174.87179474;4204.23076917;4175.64102551;4205.12820506
4206.02564096;4202.94871788;4531.15384678;4236.66666667;4537.17948781;1944.23076437;229.99999153;-0.00000896;4136.02564082;4301.53846168;4466.92307741;4305.64102578;4760.76923188;4202.94871788;4175.25641012;4205.12820506
4204.48717942;4203.58974352;4137.82051262;4236.28205129;4108.58974332;1969.99999521;-0.00000896;-0.00000896;4142.69230749;4273.20512828;4238.33333334;4303.97435912;4174.23076910;4202.94871788;4175.64102551;4205.12820506
4205.64102558;4203.07692301;4503.71794928;4236.53846154;4564.61538531;1970.25640547;-0.00000896;-0.00000896;4109.10256383;4274.61538469;4337.43589765;4305.12820527;4466.66666716;4203.58974352;4175.64102551;4205.12820506
4205.76923070;4203.20512814;4534.23076986;4235.51282052;4598.07692385;1974.35896957;-0.00000896;-0.00000896;4107.43589716;4269.61538469;4464.74359023;4306.41025655;4431.66666709;4204.35897429;4175.38461525;4205.12820506
4206.66666660;4203.46153840;4602.43589820;4236.53846154;4467.30769280;1971.41025162;-0.00000896;-0.00000896;4107.17948691;4272.05128212;4369.61538490;4305.89743604;4633.71794956;4203.20512814;4174.48717935;4205.12820506
4206.15384609;4203.97435891;4240.76923077;4236.79487180;4239.87179488;1969.99999521;-0.00000896;-0.00000896;4107.43589716;4273.84615392;4302.56410271;4305.25641040;4169.10256397;4203.97435891;4175.25641012;4205.12820506
4206.02564096;4203.46153840;4568.58974429;4236.53846154;4567.82051352;1941.02563617;-0.00000896;-0.00000896;4109.10256383;4272.69230777;4660.51282142;4305.25641040;4600.89743667;4203.97435891;4175.76923063;4205.12820506
4206.79487173;4201.02564096;4072.94871761;4235.51282052;4104.48717921;1971.28204649;-0.00000896;-0.00000896;4109.48717921;4271.28205136;3942.56410194;4305.38461553;3971.41025586;4203.97435891;4175.76923063;4205.12820506
4205.51282045;4201.15384609;4533.84615448;4236.15384616;4469.61538511;1971.92307213;-0.00000896;-0.00000896;4108.71794844;4273.58974366;4533.20512883;4305.51282066;4496.53846210;4203.58974352;4175.12820499;4205.12820506
4205.64102558;4202.43589737;4241.02564103;4234.87179488;4307.05128219;1973.71794393;-0.00000896;-0.00000896;4109.23076896;4270.89743597;4272.43589751;4303.33333348;4398.07692343;4204.35897429;4175.25641012;4205.12820506
4204.99999993;4203.58974352;4863.84615517;4235.51282052;4697.94871893;1973.84614906;-0.00000896;-0.00000896;4110.12820485;4271.66666674;4667.69230860;4305.12820527;4726.53846258;4202.69230763;4173.58974345;4205.12820506
4204.74358968;4202.82051275;4629.61538545;4235.25641026;4563.33333403;1972.43589265;-0.00000896;-0.00000896;4109.23076896;4273.97435905;4531.41025704;4302.82051296;4602.56410333;4202.56410250;4175.12820499;4205.12820506
4204.35897429;4204.23076917;4564.87179557;4235.00000000;4467.05128254;1969.74358495;-0.00000896;-0.00000896;4109.48717921;4272.43589751;4499.61538518;4304.87179501;4661.28205219;4204.35897429;4174.48717935;4205.12820506
4203.46153840;4202.69230763;4500.64102620;4235.25641026;4468.71794921;1970.51281572;-0.00000896;-0.00000896;4110.12820485;4272.69230777;4530.38461601;4307.05128219;4697.05128303;4203.07692301;4175.64102551;4205.12820506
4204.35897429;4202.69230763;4536.92307755;4235.64102564;4536.92307755;1971.02563623;-0.00000896;-0.00000896;4108.58974332;4302.69230784;4832.30769356;4304.74358989;4631.79487263;4203.07692301;4175.89743576;4205.12820506
4205.76923070;4201.92307686;4268.71794879;4234.61538462;4206.66666660;1970.51281572;-0.00000896;-0.00000896;4109.10256383;4271.28205136;4601.79487256;4304.48717963;4369.48717977;4203.58974352;4201.66666660;4205.12820506
4204.74358968;4203.20512814;4629.35897520;4234.87179488;4602.17948795;1972.05127726;-0.00000896;-0.00000896;4110.12820485;4273.84615392;4635.64102648;4306.79487194;4595.25641102;4203.97435891;4174.99999986;4205.12820506
4205.25641019;4202.30769224;4432.82051324;4235.89743590;4271.66666674;1970.38461059;-0.00000896;-0.00000896;4135.38461518;4268.33333341;4365.25641054;4304.87179501;4304.23076937;4203.33333327;4175.38461525;4205.12820506
4204.87179481;4202.94871788;4372.17948746;4234.87179488;4467.05128254;1970.89743111;-0.00000896;-0.00000896;4135.38461518;4301.28205142;4562.56410326;4306.15384630;4340.38461560;4206.41025634;4175.38461525;4205.12820506
4205.38461532;4202.17948711;4299.74358989;4236.02564103;4268.97435905;1970.38461059;-0.00000896;-0.00000896;4109.23076896;4273.46153853;4234.87179488;4305.38461553;4306.79487194;4204.35897429;4175.25641012;4205.12820506
4205.12820506;4201.53846147;4138.07692287;4235.76923077;4209.10256404;1972.05127726;-0.00000896;-0.00000896;4109.74358947;4271.15384623;4142.30769210;4332.43589765;4074.99999966;4202.69230763;4175.51282038;4205.12820506
4204.48717942;4202.69230763;4734.23077028;4236.15384616;4632.17948802;1970.76922598;-0.00000896;-0.00000896;4107.82051255;4273.20512828;4602.05128282;4306.15384630;4701.28205226;4203.07692301;4174.35897422;4205.12820506
4204.99999993;4202.17948711;4236.79487180;4235.89743590;4339.48717970;1971.15384136;-0.00000896;-0.00000896;4107.17948691;4272.56410264;4336.53846175;4304.74358989;4233.84615385;4203.71794865;4175.25641012;4205.12820506
4205.89743583;4202.69230763;4175.64102551;4235.51282052;4238.71794872;1943.84614899;-0.00000896;-0.00000896;4107.69230742;4273.97435905;4201.02564096;4305.64102578;4201.79487173;4202.56410250;4175.89743576;4205.12820506
4206.15384609;4202.05128199;4338.07692329;4236.53846154;4402.05128240;1969.74358495;-0.00000896;-0.00000896;4107.30769203;4271.41025648;4402.82051317;4304.48717963;4339.10256431;4202.30769224;4175.51282038;4205.12820506
4205.51282045;4202.05128199;4501.92307748;4236.02564103;4700.89743687;1971.92307213;-0.00000896;-0.00000896;4107.43589716;4274.48717956;4695.25641123;4306.02564117;4536.15384678;4203.58974352;4175.38461525;4205.12820506
4205.51282045;4202.43589737;4499.23076979;4234.87179488;4432.56410298;1973.58973880;229.99999153;-0.00000896;4107.94871767;4241.28205129;4437.17948760;4305.25641040;4397.94871830;4202.82051275;4175.25641012;4205.12820506
4206.41025634;4203.20512814;4563.33333403;4235.25641026;4465.64102613;1970.38461059;229.99999153;-0.00000896;4108.20512793;4272.05128212;4469.35897485;4305.12820527;4498.07692364;4203.71794865;4175.12820499;4205.12820506
4205.64102558;4203.07692301;4826.79487305;4235.64102564;4825.89743715;1972.17948239;229.99999153;-0.00000896;4107.17948691;4272.17948725;4758.97436009;4304.48717963;4598.84615461;4203.07692301;4175.25641012;4205.12820506
4205.89743583;4202.94871788;4662.43589834;4235.12820513;4601.28205205;1971.15384136;229.99999153;-0.00000896;4106.92307665;4269.10256418;4503.20512876;4306.02564117;4830.00000125;4204.48717942;4175.64102551;4205.12820506
4205.25641019;4203.84615378;4137.69230749;4236.41025641;4239.35897436;1944.35896950;-0.00000896;-0.00000896;4107.94871767;4301.28205142;4268.46153853;4305.38461553;4203.58974352;4204.99999993;4175.89743576;4205.12820506
4205.25641019;4202.17948711;4434.48717991;4235.12820513;4241.79487180;1972.30768752;-0.00000896;-0.00000896;4107.17948691;4273.71794879;4371.66666695;4304.35897450;4467.43589793;4203.20512814;4175.51282038;4205.12820506
4205.38461532;4202.05128199;4700.25641123;4234.87179488;4566.15384685;1943.33332847;229.99999153;-0.00000896;4107.94871767;4273.33333341;4763.33333445;4332.30769252;4762.17948830;4204.48717942;4175.38461525;4205.12820506
4204.61538455;4202.69230763;4468.71794921;4235.12820513;4467.17948767;1971.41025162;-0.00000896;-0.00000896;4110.38461511;4274.23076930;4827.82051408;4305.38461553;4563.33333403;4203.84615378;4175.51282038;4205.12820506
4206.28205122;4201.28205122;4562.56410326;4235.00000000;4665.38461629;1971.79486700;229.99999153;-0.00000896;4108.46153819;4300.51282066;4634.61538545;4304.35897450;4630.38461622;4203.71794865;4175.25641012;4205.12820506
4204.99999993;4201.79487173;4468.33333382;4235.64102564;4468.07692357;1971.79486700;-0.00000896;-0.00000896;4109.61538434;4270.00000007;4273.71794879;4306.66666681;4498.84615441;4204.23076917;4175.89743576;4205.12820506
4204.48717942;4203.07692301;4628.20512904;4236.02564103;4405.89743625;1972.56409777;229.99999153;-0.00000896;4109.87179460;4272.56410264;4501.66666723;4304.87179501;4634.61538545;4204.10256404;4175.25641012;4205.12820506
4205.12820506;4203.07692301;3906.28205059;4235.38461539;3977.82051227;1972.05127726;-0.00000896;-0.00000896;4108.97435870;4272.94871802;3810.38461449;4305.51282066;3878.07692232;4203.20512814;4201.53846147;4205.12820506
4204.87179481;4202.17948711;4731.15384720;4234.23076923;4664.48718039;1971.41025162;229.99999153;-0.00000896;4108.46153819;4266.92307700;4890.89743729;4306.92307707;4799.23077042;4202.82051275;4175.51282038;4205.12820506
4204.99999993;4203.58974352;4071.02564068;4235.89743590;4110.51282024;1970.64102085;-0.00000896;-0.00000896;4108.58974332;4274.10256418;4140.38461518;4306.02564117;4073.07692273;4203.33333327;4174.87179474;4205.12820506
4205.12820506;4203.20512814;4436.66666709;4234.87179488;4405.51282086;1972.30768752;229.99999153;-0.00000896;4107.43589716;4272.82051289;4471.15384664;4305.00000014;4400.25641061;4202.69230763;4175.64102551;4205.12820506
4205.12820506;4202.69230763;4369.35897464;4236.41025641;4499.61538518;1971.41025162;-0.00000896;-0.00000896;4107.56410229;4267.56410264;4435.12820555;4306.41025655;4337.17948739;4202.43589737;4175.64102551;4205.12820506
4205.89743583;4202.30769224;4496.79487235;4234.87179488;4565.25641096;1970.12820034;229.99999153;-0.00000896;4108.20512793;4300.64102578;4533.20512883;4305.51282066;4401.92307727;4203.71794865;4175.64102551;4205.12820506
4204.35897429;4203.71794865;4236.41025641;4235.64102564;4306.92307707;1971.66666188;-0.00000896;-0.00000896;4109.23076896;4270.64102571;4268.84615392;4305.38461553;4299.87179501;4204.23076917;4175.89743576;4205.12820506
4204.87179481;4202.94871788;4468.84615434;4235.38461539;4273.58974366;1969.87179008;229.99999153;-0.00000896;4108.07692280;4272.30769238;4530.64102627;4306.66666681;4530.12820576;4203.58974352;4175.38461525;4205.12820506
4203.97435891;4203.58974352;4432.43589786;4234.61538462;4529.48718012;1971.41025162;-0.00000896;-0.00000896;4108.07692280;4272.05128212;4761.41025753;4304.74358989;4564.35897506;4204.48717942;4175.51282038;4205.12820506
4205.51282045;4202.43589737;4202.82051275;4234.23076923;4138.84615364;1943.46153360;229.99999153;-0.00000896;4108.97435870;4268.46153853;4369.35897464;4305.76923091;4206.41025634;4204.61538455;4175.38461525;4205.12820506
4204.10256404;4203.46153840;4732.30769335;4235.38461539;4628.33333417;1971.02563623;-0.00000896;-0.00000896;4108.46153819;4300.51282066;4664.10256501;4305.12820527;4792.94871913;4203.58974352;4202.05128199;4205.12820506
4205.64102558;4202.17948711;4108.46153819;4235.12820513;4206.79487173;1943.84614899;229.99999153;-0.00000896;4105.89743562;4271.28205136;4074.23076889;4305.64102578;4103.71794844;4203.33333327;4201.28205122;4205.12820506
4204.10256404;4203.97435891;4602.94871872;4235.51282052;4369.23076951;1969.35896957;-0.00000896;-0.00000896;4109.10256383;4270.76923084;4600.25641102;4304.61538476;4728.46153951;4203.58974352;4175.25641012;4205.12820506
4205.76923070;4202.69230763;4502.30769287;4234.23076923;4499.87179543;1972.94871316;229.99999153;-0.00000896;4108.46153819;4272.43589751;4596.15384692;4305.38461553;4596.41025718;4204.23076917;4174.61538448;4205.12820506
4205.25641019;4202.56410250;4701.41025739;4234.61538462;4534.35897499;1969.48717470;-0.00000896;-0.00000896;4108.33333306;4268.58974366;4497.43589800;4304.48717963;4631.02564186;4204.61538455;4175.12820499;4205.12820506
4204.61538455;4202.43589737;4107.43589716;4236.02564103;4142.05128185;1970.12820034;229.99999153;-0.00000896;4110.12820485;4273.84615392;4239.87179488;4306.28205142;4174.61538448;4204.23076917;4175.51282038;4205.12820506
4204.87179481;4202.43589737;4732.43589848;4235.12820513;4660.51282142;1974.87179008;-0.00000896;-0.00000896;4109.74358947;4271.79487187;4633.20512904;4303.46153860;4468.97435946;4203.84615378;4175.25641012;4205.12820506
4205.38461532;4202.43589737;4568.33333403;4234.74358975;4339.48717970;1971.53845675;229.99999153;-0.00000896;4107.43589716;4271.41025648;4597.30769308;4304.87179501;4496.66666723;4205.12820506;4176.28205115;4205.12820506
4205.38461532;4204.35897429;4568.58974429;4235.76923077;4532.30769294;1972.30768752;-0.00000896;-0.00000896;4107.05128178;4302.17948732;4371.41025669;4305.89743604;4500.51282107;4203.71794865;4175.76923063;4205.12820506
4206.41025634;4203.07692301;4463.84615434;4234.23076923;4469.74359023;1941.79486693;229.99999153;-0.00000896;4106.28205101;4271.79487187;4562.56410326;4305.76923091;4497.94871851;4204.48717942;4175.38461525;4205.12820506
4205.25641019;4203.33333327;4268.84615392;4235.12820513;4267.56410264;1944.10255924;-0.00000896;-0.00000896;4108.20512793;4299.48717963;4272.05128212;4304.35897450;4236.92307693;4203.84615378;4175.12820499;4205.12820506
4206.02564096;4201.41025634;4137.17948697;4209.10256404;4110.38461511;1970.51281572;229.99999153;-0.00000896;4109.99999973;4271.53846161;4170.38461525;4306.02564117;4103.58974332;4204.10256404;4174.35897422;4205.12820506
4204.99999993;4202.30769224;4110.12820485;4233.97435898;4173.33333320;1973.46153367;-0.00000896;-0.00000896;4108.71794844;4271.79487187;4174.87179474;4304.10256425;4110.51282024;4204.48717942;4175.12820499;4205.12820506
4204.87179481;4202.17948711;4470.25641075;4233.84615385;4437.17948760;1973.07691829;-0.00000896;-0.00000896;4109.48717921;4268.71794879;4336.66666688;4306.41025655;4535.12820576;4203.97435891;4175.25641012;4205.12820506
4204.61538455;4203.71794865;4503.97435953;4234.74358975;4499.48718005;1969.74358495;-0.00000896;-0.00000896;4108.33333306;4274.48717956;4372.30769259;4304.35897450;4502.30769287;4204.48717942;4175.12820499;4205.12820506
4203.97435891;4203.46153840;4799.74359093;4234.61538462;4598.97435974;1973.33332854;229.99999153;-0.00000896;4108.20512793;4272.69230777;4796.28205247;4305.51282066;4829.10256536;4203.46153840;4175.51282038;4205.12820506
4203.84615378;4203.46153840;4403.84615420;4235.51282052;4305.12820527;1972.94871316;229.99999153;-0.00000896;4107.30769203;4269.74358982;4532.56410319;4306.53846168;4567.17948788;4201.79487173;4174.10256397;4205.12820506
4204.74358968;4202.69230763;4566.15384685;4234.35897436;4496.53846210;1969.61537982;229.99999153;-0.00000896;4108.07692280;4274.48717956;4436.53846196;4305.38461553;4627.94871879;4203.07692301;4175.51282038;4205.12820506
4205.64102558;4202.30769224;4568.84615454;4235.76923077;4334.87179508;1970.64102085;229.99999153;-0.00000896;4109.48717921;4266.92307700;4699.48718046;4303.84615399;4564.10256480;4202.82051275;4175.25641012;4205.12820506
4204.87179481;4202.94871788;4792.17948836;4235.25641026;4629.87179571;1969.74358495;-0.00000896;-0.00000896;4109.99999973;4299.87179501;4729.10256515;4304.74358989;4832.17948843;4203.97435891;4175.51282038;4205.12820506
4205.89743583;4203.07692301;4272.69230777;4234.23076923;4240.51282052;1970.51281572;-0.00000896;-0.00000896;4136.02564082;4273.07692315;4010.38461490;4306.41025655;4076.28205094;4202.94871788;4175.12820499;4205.12820506
4204.61538455;4203.07692301;4502.05128261;4235.76923077;4566.28205198;1972.43589265;-0.00000896;-0.00000896;4109.23076896;4272.30769238;4566.41025711;4307.17948732;4471.28205177;4202.56410250;4175.25641012;4205.12820506
4205.76923070;4202.05128199;4239.61538462;4234.74358975;4240.00000000;1972.94871316;-0.00000896;-0.00000896;4109.23076896;4241.79487180;4233.97435898;4304.35897450;4135.76923056;4202.56410250;4175.25641012;4205.12820506
4204.35897429;4202.43589737;4667.94871886;4236.02564103;4563.33333403;1943.33332847;-0.00000896;-0.00000896;4110.38461511;4273.33333341;4761.53846265;4306.28205142;4569.23076993;4201.79487173;4201.92307686;4205.12820506
4204.48717942;4203.20512814;4438.33333375;4236.41025641;4434.61538504;1974.61537982;-0.00000896;-0.00000896;4110.25640998;4268.71794879;4498.97435953;4306.79487194;4504.10256466;4203.84615378;4175.12820499;4205.12820506
4205.25641019;4203.46153840;4537.17948781;4234.74358975;4569.61538531;1970.51281572;-0.00000896;-0.00000896;4107.82051255;4268.07692315;4697.69230867;4303.71794886;4634.23077007;4202.69230763;4174.74358961;4205.12820506
4204.99999993;4202.82051275;4569.35897506;4234.48717949;4366.53846182;1972.30768752;-0.00000896;-0.00000896;4107.30769203;4273.58974366;4503.84615441;4303.97435912;4435.12820555;4203.07692301;4175.38461525;4205.12820506
4205.51282045;4202.69230763;4402.30769266;4235.25641026;4501.53846210;1943.33332847;-0.00000896;-0.00000896;4107.94871767;4270.76923084;4627.69230853;4306.66666681;4597.05128282;4204.74358968;4175.12820499;4205.12820506
4205.76923070;4202.82051275;4470.25641075;4234.61538462;4269.87179495;1970.12820034;-0.00000896;-0.00000896;4108.58974332;4273.33333341;4402.82051317;4305.25641040;4466.15384664;4203.07692301;4175.38461525;4205.12820506
4205.64102558;4203.33333327;4076.79487145;4235.89743590;4143.07692287;1973.33332854;-0.00000896;-0.00000896;4110.64102537;4270.00000007;4044.10256369;4306.66666681;4041.15384574;4202.69230763;4201.66666660;4205.12820506
4205.51282045;4203.71794865;4732.30769335;4234.87179488;4825.64102690;1971.28204649;-0.00000896;-0.00000896;4109.74358947;4271.02564110;4766.28205240;4306.53846168;4764.61538573;4203.84615378;4175.51282038;4205.12820506
4204.74358968;4204.74358968;4438.33333375;4235.51282052;4433.84615427;1943.84614899;-0.00000896;-0.00000896;4109.61538434;4273.71794879;4463.84615434;4304.48717963;4366.28205156;4203.58974352;4175.25641012;4205.12820506
4204.87179481;4203.46153840;4336.28205149;4236.15384616;4432.69230811;1972.43589265;-0.00000896;-0.00000896;4108.46153819;4269.35897443;4568.20512890;4304.61538476;4438.58974401;4202.94871788;4175.51282038;4205.12820506
4205.25641019;4203.20512814;4731.28205233;4235.64102564;4464.48717998;1972.43589265;-0.00000896;-0.00000896;4108.58974332;4271.53846161;4660.89743680;4304.61538476;4858.46153979;4202.43589737;4174.87179474;4205.12820506
4203.71794865;4204.23076917;4666.41025732;4237.17948718;4469.87179536;1972.05127726;-0.00000896;-0.00000896;4108.20512793;4267.17948725;4731.66666771;4305.51282066;4562.30769301;4202.82051275;4173.84615371;4205.12820506
4205.25641019;4202.94871788;4760.00000112;4236.02564103;4763.97436009;1971.02563623;-0.00000896;-0.00000896;4107.30769203;4302.05128219;4470.64102613;4303.84615399;4693.46153944;4202.43589737;4175.25641012;4205.12820506
4204.74358968;4202.69230763;4038.84615343;4235.51282052;3973.71794817;1971.28204649;-0.00000896;-0.00000896;4107.56410229;4271.02564110;4104.87179460;4304.61538476;3945.38461476;4203.07692301;4175.38461525;4205.12820506
4204.87179481;4202.82051275;4267.30769238;4235.00000000;4303.58974373;1943.58973873;-0.00000896;-0.00000896;4108.84615357;4303.07692322;4302.82051296;4306.02564117;4334.23076944;4204.10256404;4175.38461525;4205.12820506
4204.87179481;4201.66666660;4334.35897457;4236.15384616;4204.23076917;1972.56409777;-0.00000896;-0.00000896;4107.94871767;4268.97435905;4174.10256397;4304.23076937;4070.38461504;4203.07692301;4175.76923063;4205.12820506
4204.74358968;4202.43589737;4665.12820604;4235.25641026;4730.64102669;1972.30768752;-0.00000896;-0.00000896;4109.10256383;4266.66666674;4602.43589820;4305.64102578;4530.12820576;4203.07692301;4175.25641012;4205.12820506
4204.23076917;4202.56410250;4105.89743562;4236.66666667;4168.33333320;1970.76922598;-0.00000896;-0.00000896;4107.56410229;4273.46153853;4203.07692301;4304.48717963;4104.74358947;4203.07692301;4175.51282038;4205.12820506
4203.71794865;4202.56410250;4073.97435863;4235.38461539;3976.28205073;1970.76922598;-0.00000896;-0.00000896;4106.79487152;4272.05128212;4040.38461497;4303.71794886;4076.66666632;4205.25641019;4174.99999986;4205.12820506
4204.48717942;4203.07692301;4437.94871837;4235.12820513;4470.38461587;1971.53845675;-0.00000896;-0.00000896;4108.33333306;4272.30769238;4403.84615420;4303.84615399;4432.43589786;4204.35897429;4175.38461525;4205.12820506
4205.12820506;4201.66666660;3973.33333278;4235.64102564;3973.84615329;1973.97435418;229.99999153;-0.00000896;4107.94871767;4270.51282059;3938.46153784;4304.35897450;4039.99999959;4205.12820506;4175.25641012;4205.12820506
4204.48717942;4201.92307686;4793.07692426;4234.23076923;4762.30769342;1972.05127726;8.07691412;-0.00000896;4107.94871767;4273.58974366;4792.30769349;4304.35897450;4628.97435981;4202.94871788;4175.38461525;4205.12820506
4204.10256404;4201.92307686;4371.41025669;4235.00000000;4564.74359044;1972.30768752;3.20511925;-0.00000896;4105.51282024;4268.20512828;4595.76923154;4306.02564117;4596.66666743;4204.99999993;4176.15384602;4205.12820506
4204.35897429;4202.30769224;4176.02564089;4234.48717949;4138.58974339;1970.64102085;2.43588848;-0.00000896;4108.20512793;4272.17948725;4371.66666695;4303.97435912;4172.05128192;4203.71794865;4175.51282038;4205.12820506
4204.61538455;4201.53846147;4697.43589841;4234.10256411;4765.51282163;1972.17948239;229.99999153;-0.00000896;4107.69230742;4267.82051289;4727.05128310;4305.12820527;4728.58974464;4205.51282045;4174.48717935;4205.12820506
4204.87179481;4201.53846147;4406.02564138;4208.84615378;4499.87179543;1969.74358495;229.99999153;-0.00000896;4110.38461511;4268.20512828;4732.94871899;4305.38461553;4433.07692350;4203.71794865;4175.38461525;4205.12820506
4204.23076917;4202.69230763;4272.82051289;4234.87179488;4368.07692336;1972.43589265;229.99999153;-0.00000896;4135.76923056;4270.89743597;4665.25641116;4303.97435912;4469.23076972;4203.71794865;4174.61538448;4205.12820506
4203.71794865;4203.07692301;4431.66666709;4235.12820513;4436.02564145;1973.33332854;229.99999153;-0.00000896;4108.97435870;4267.56410264;4402.30769266;4302.94871809;4332.30769252;4204.61538455;4174.87179474;4205.12820506
4203.58974352;4203.07692301;4568.97435967;4236.28205129;4435.00000042;1970.38461059;229.99999153;-0.00000896;4109.23076896;4268.71794879;4599.23077000;4305.12820527;4634.48718032;4203.97435891;4174.87179474;4205.12820506
4204.61538455;4202.69230763;4665.76923168;4235.64102564;4667.43589834;1971.02563623;229.99999153;-0.00000896;4108.46153819;4272.05128212;4602.82051359;4306.41025655;4563.84615454;4205.12820506;4175.25641012;4205.12820506
4204.61538455;4202.56410250;4044.74358933;4235.51282052;4040.76923036;1972.94871316;229.99999153;-0.00000896;4107.94871767;4267.82051289;4043.07692266;4305.25641040;4141.02564082;4204.35897429;4175.12820499;4205.12820506
4204.74358968;4202.82051275;4334.10256431;4236.15384616;4239.48717949;1969.87179008;229.99999153;-0.00000896;4108.20512793;4267.56410264;4633.58974443;4305.51282066;4464.87179536;4203.33333327;4175.25641012;4205.12820506
4204.61538455;4203.07692301;4630.00000084;4235.25641026;4436.15384657;1970.38461059;229.99999153;-0.00000896;4109.10256383;4266.92307700;4634.48718032;4303.33333348;4600.38461615;4202.94871788;4174.87179474;4205.12820506
4205.51282045;4202.56410250;4301.79487194;4235.12820513;4235.51282052;1974.10255931;229.99999153;-0.00000896;4108.33333306;4267.05128212;4464.87179536;4305.00000014;4303.07692322;4203.07692301;4175.51282038;4205.12820506
4204.61538455;4203.20512814;4668.46153937;4234.87179488;4501.53846210;1973.97435418;229.99999153;-0.00000896;4106.92307665;4267.69230777;4731.53846258;4303.97435912;4468.07692357;4202.43589737;4174.23076910;4205.12820506
4204.99999993;4204.10256404;4732.82051387;4235.51282052;4796.02564221;1974.10255931;229.99999153;-0.00000896;4106.79487152;4274.35897443;4632.69230853;4303.71794886;4729.10256515;4203.07692301;4173.84615371;4205.12820506
4204.87179481;4204.87179481;3907.05128136;4234.87179488;3877.05128129;1943.97435411;229.99999153;-0.00000896;4106.15384588;4271.28205136;4143.07692287;4305.12820527;3875.64102488;4204.23076917;4174.87179474;4205.12820506
4205.64102558;4204.35897429;4169.23076910;4235.12820513;4304.10256425;1941.28204642;229.99999153;-0.00000896;4108.33333306;4271.66666674;4201.66666660;4303.20512835;4405.89743625;4204.23076917;4173.97435884;4205.12820506
4206.28205122;4202.43589737;4236.66666667;4233.84615385;4135.76923056;1970.76922598;229.99999153;-0.00000896;4109.23076896;4272.82051289;4136.66666646;4305.76923091;4306.02564117;4204.35897429;4175.38461525;4205.12820506
4206.66666660;4201.79487173;4171.28205115;4235.25641026;4103.58974332;1970.25640547;229.99999153;-0.00000896;4106.28205101;4267.94871802;4303.84615399;4304.35897450;4334.74358996;4203.20512814;4174.99999986;4205.12820506
4206.53846147;4203.07692301;4728.07692412;4234.10256411;4794.87179606;1974.61537982;229.99999153;-0.00000896;4108.20512793;4274.10256418;4793.20512939;4304.74358989;4760.76923188;4203.84615378;4175.38461525;4205.12820506
4204.74358968;4204.61538455;4497.94871851;4234.35897436;4339.87179508;1974.87179008;229.99999153;-0.00000896;4107.43589716;4266.92307700;4463.84615434;4303.97435912;4369.48717977;4202.82051275;4175.12820499;4205.12820506
4204.61538455;4205.12820506;4733.20512925;4234.48717949;4797.94871913;1972.94871316;229.99999153;-0.00000896;4108.97435870;4271.02564110;4766.53846265;4305.89743604;4635.64102648;4202.56410250;4174.87179474;4205.12820506
4204.87179481;4204.35897429;4040.25640984;4234.61538462;4143.07692287;1972.43589265;229.99999153;-0.00000896;4109.23076896;4273.33333341;3973.20512765;4304.10256425;4073.58974325;4203.84615378;4175.25641012;4205.12820506
4204.10256404;4204.10256404;4891.15384755;4235.38461539;4992.69230929;1971.41025162;229.99999153;-0.00000896;4108.84615357;4272.17948725;5028.84615552;4304.61538476;4865.51282184;4204.61538455;4202.05128199;4205.12820506
4204.74358968;4203.20512814;3879.74358898;4234.23076923;3939.74358912;1972.56409777;229.99999153;-0.00000896;4109.74358947;4241.92307693;3975.89743535;4304.61538476;4070.12820478;4204.10256404;4175.12820499;4205.12820506
4205.51282045;4203.33333327;4203.71794865;4234.61538462;4142.94871774;1970.89743111;229.99999153;-0.00000896;4136.92307672;4272.94871802;4203.20512814;4305.51282066;4106.92307665;4202.69230763;4201.41025634;4205.12820506
4205.25641019;4204.10256404;4370.25641054;4235.00000000;4400.89743625;1970.89743111;229.99999153;-0.00000896;4135.64102544;4270.51282059;4135.51282031;4305.51282066;4404.10256445;4203.84615378;4175.38461525;4205.12820506
4204.87179481;4202.94871788;3978.84615329;4236.66666667;4010.25640977;1944.10255924;229.99999153;-0.00000896;4137.05128185;4270.51282059;4104.10256383;4304.61538476;4071.15384581;4203.58974352;4176.28205115;4205.12820506
4204.61538455;4202.94871788;4796.53846272;4235.64102564;4896.79487319;1973.46153367;229.99999153;-0.00000896;4136.66666646;4272.56410264;4698.46153944;4303.84615399;4728.33333438;4202.82051275;4175.51282038;4205.12820506
4203.84615378;4202.43589737;3939.87179425;4236.53846154;3841.15384532;1969.35896957;229.99999153;-0.00000896;4110.38461511;4269.87179495;4105.64102537;4305.89743604;3939.35897374;4202.82051275;4175.38461525;4205.12820506
4203.07692301;4202.69230763;4206.15384609;4235.38461539;4300.25641040;1970.51281572;229.99999153;-0.00000896;4109.99999973;4274.48717956;4204.61538455;4304.10256425;4332.56410278;4203.58974352;4175.12820499;4205.12820506
4203.84615378;4203.07692301;4270.00000007;4235.38461539;4335.64102585;1974.61537982;229.99999153;-0.00000896;4107.82051255;4268.46153853;4334.10256431;4304.74358989;4305.64102578;4203.46153840;4175.25641012;4205.12820506
4203.71794865;4203.46153840;4271.53846161;4236.15384616;4268.07692315;1971.53845675;229.99999153;-0.00000896;4108.20512793;4271.02564110;4236.92307693;4306.66666681;4208.33333327;4202.30769224;4174.87179474;4205.12820506
4205.12820506;4201.79487173;4730.00000105;4234.61538462;4729.48718053;1969.23076444;229.99999153;-0.00000896;4108.58974332;4270.76923084;4994.74359135;4304.87179501;4963.71795025;4202.82051275;4175.38461525;4205.12820506
4204.87179481;4201.92307686;4332.69230790;4236.15384616;4236.28205129;1973.46153367;229.99999153;-0.00000896;4109.61538434;4266.79487187;4501.79487235;4304.48717963;4306.66666681;4202.17948711;4201.66666660;4205.12820506
4204.87179481;4201.92307686;4306.02564117;4235.00000000;4468.46153895;1969.99999521;229.99999153;-0.00000896;4108.07692280;4270.25641033;4696.92307790;4304.48717963;4402.43589779;4203.07692301;4174.99999986;4205.12820506
4204.48717942;4201.15384609;4629.35897520;4235.38461539;4628.46153930;1970.38461059;2.69229873;-0.00000896;4108.07692280;4271.15384623;4668.58974450;4304.10256425;4663.97435988;4203.46153840;4176.02564089;4205.12820506
4204.74358968;4202.30769224;4695.64102662;4235.64102564;4403.84615420;1973.71794393;-0.00000896;-0.00000896;4107.05128178;4240.25641026;4666.02564193;4304.74358989;4661.66666757;4203.58974352;4175.25641012;4205.12820506
4204.74358968;4203.07692301;4666.66666757;4236.53846154;4499.61538518;1970.51281572;229.99999153;-0.00000896;4108.20512793;4270.89743597;4700.64102662;4305.00000014;4698.58974457;4203.97435891;4175.12820499;4205.12820506
4204.87179481;4203.33333327;4633.58974443;4234.87179488;4595.38461615;1974.35896957;-0.00000896;-0.00000896;4106.41025614;4267.05128212;4633.07692391;4305.25641040;4598.58974436;4203.20512814;4174.99999986;4205.12820506
4205.51282045;4202.94871788;4533.84615448;4234.87179488;4501.92307748;1972.17948239;-0.00000896;-0.00000896;4107.43589716;4270.64102571;4632.17948802;4302.94871809;4470.76923126;4203.71794865;4174.74358961;4205.12820506
4204.87179481;4202.94871788;4567.94871865;4234.74358975;4697.30769328;1972.94871316;-0.00000896;-0.00000896;4107.56410229;4270.00000007;4665.00000091;4304.61538476;4629.87179571;4204.10256404;4174.87179474;4205.12820506
4205.64102558;4203.71794865;4202.17948711;4234.74358975;4071.02564068;1969.61537982;-0.00000896;-0.00000896;4108.84615357;4268.07692315;4205.25641019;4304.35897450;4103.07692280;4204.10256404;4175.25641012;4205.12820506
4205.25641019;4203.07692301;3978.84615329;4234.61538462;4074.74358940;1974.48717470;-0.00000896;-0.00000896;4108.84615357;4269.10256418;4041.66666625;4304.48717963;4137.69230749;4203.58974352;4174.99999986;4205.12820506
4205.38461532;4203.20512814;4241.66666667;4209.10256404;4135.38461518;1943.20512334;-0.00000896;-0.00000896;4109.74358947;4270.89743597;4135.89743569;4304.23076937;4241.41025641;4203.07692301;4175.38461525;4205.12820506
4205.51282045;4202.82051275;4110.38461511;4234.10256411;4173.71794858;1971.92307213;-0.00000896;-0.00000896;4110.25640998;4266.66666674;4208.71794865;4306.41025655;4269.23076930;4203.33333327;4173.84615371;4205.12820506
4205.38461532;4204.10256404;4760.89743701;4233.97435898;4763.20512932;1972.82050803;-0.00000896;-0.00000896;4109.48717921;4272.56410264;4469.10256459;4303.71794886;4372.56410285;4204.48717942;4174.99999986;4205.12820506
4204.35897429;4204.10256404;4764.23077035;4235.76923077;4467.05128254;1973.20512341;-0.00000896;-0.00000896;4109.74358947;4267.56410264;4733.71794976;4304.10256425;4733.33333438;4201.79487173;4173.07692294;4205.12820506
4205.64102558;4204.35897429;4238.84615385;4234.87179488;4205.38461532;1969.23076444;-0.00000896;-0.00000896;4108.71794844;4268.97435905;4106.02564075;4304.61538476;4174.74358961;4203.58974352;4175.51282038;4205.12820506
4205.38461532;4204.23076917;4305.00000014;4234.74358975;4366.28205156;1971.66666188;-0.00000896;-0.00000896;4109.99999973;4271.28205136;4432.94871837;4304.48717963;4399.48717984;4202.82051275;4175.38461525;4205.12820506
4205.51282045;4203.33333327;4762.69230881;4234.48717949;4497.43589800;1970.25640547;-0.00000896;-0.00000896;4107.94871767;4268.46153853;4696.92307790;4305.64102578;4765.25641137;4203.58974352;4175.12820499;4205.12820506
4205.64102558;4202.94871788;4798.07692426;4235.38461539;4536.41025704;1971.41025162;-0.00000896;-0.00000896;4110.64102537;4299.48717963;4700.38461636;4305.76923091;4831.15384741;4202.82051275;4173.84615371;4205.12820506
4205.89743583;4203.97435891;4663.07692398;4235.25641026;4467.05128254;1972.17948239;-0.00000896;-0.00000896;4107.94871767;4269.87179495;4562.05128275;4306.92307707;4628.07692391;4204.35897429;4175.25641012;4205.12820506
4205.76923070;4203.33333327;4137.30769210;4235.89743590;4272.94871802;1969.74358495;-0.00000896;-0.00000896;4110.64102537;4271.79487187;4241.53846154;4304.87179501;4108.07692280;4202.43589737;4174.48717935;4205.12820506
4205.25641019;4203.07692301;4372.69230797;4235.89743590;4208.33333327;1974.10255931;-0.00000896;-0.00000896;4109.61538434;4268.71794879;4307.56410271;4304.35897450;4434.74359016;4204.10256404;4174.61538448;4205.12820506
4205.89743583;4202.82051275;4070.51282017;4235.51282052;4141.28205108;1969.99999521;-0.00000896;-0.00000896;4108.20512793;4299.48717963;4207.30769224;4306.15384630;4043.97435856;4202.56410250;4175.51282038;4205.12820506
4204.48717942;4202.69230763;4660.51282142;4234.87179488;4596.79487256;1942.30768745;-0.00000896;-0.00000896;4109.35897408;4272.69230777;5092.30769412;4306.41025655;4924.23077069;4204.35897429;4175.51282038;4205.12820506
4205.64102558;4202.56410250;4436.41025683;4233.97435898;4467.82051331;1975.25640547;-0.00000896;-0.00000896;4108.58974332;4269.23076930;4432.56410298;4305.00000014;4371.41025669;4202.69230763;4175.38461525;4205.12820506
4203.58974352;4203.71794865;4667.05128296;4234.48717949;4698.71794969;1972.69230290;-0.00000896;-0.00000896;4106.28205101;4266.79487187;4566.66666737;4303.58974373;4563.58974429;4201.41025634;4175.25641012;4205.12820506
4204.87179481;4204.48717942;4339.10256431;4208.71794865;4468.84615434;1974.23076444;-0.00000896;-0.00000896;4104.99999973;4273.71794879;4403.84615420;4306.92307707;4367.30769259;4201.92307686;4175.12820499;4205.12820506
4204.48717942;4204.99999993;4695.38461636;4208.71794865;4661.79487270;1944.23076437;-0.00000896;-0.00000896;4103.46153819;4269.87179495;4535.64102627;4304.48717963;4727.05128310;4204.48717942;4174.99999986;4205.12820506
4204.87179481;4203.46153840;4630.00000084;4208.20512814;4337.05128226;1942.82050796;-0.00000896;-0.00000896;4106.28205101;4269.87179495;4600.51282128;4303.84615399;4630.25641109;4203.71794865;4174.99999986;4205.12820506
4204.87179481;4202.05128199;4040.64102523;4233.84615385;3978.58974304;1969.61537982;-0.00000896;-0.00000896;4107.94871767;4271.92307700;4102.82051255;4306.28205142;4236.28205129;4202.69230763;4174.87179474;4205.12820506
4206.28205122;4175.89743576;4529.61538524;4207.30769224;4501.66666723;1973.20512341;-0.00000896;-0.00000896;4109.87179460;4270.38461546;4399.61538497;4304.48717963;4241.41025641;4204.35897429;4175.25641012;4205.12820506
4205.25641019;4202.43589737;4601.02564179;4208.46153840;4599.48718026;1972.17948239;229.99999153;-0.00000896;4136.41025621;4241.41025641;4661.15384706;4304.74358989;4661.53846245;4203.84615378;4201.66666660;4205.12820506
4205.64102558;4203.33333327;4728.84615489;4208.46153840;4698.97435995;1975.38461059;229.99999153;-0.00000896;4137.69230749;4271.92307700;4567.69230839;4305.00000014;4471.28205177;4203.33333327;4175.51282038;4205.12820506
4205.25641019;4204.74358968;4537.05128268;4209.10256404;4498.58974415;1971.79486700;229.99999153;-0.00000896;4136.02564082;4273.58974366;4304.87179501;4305.89743604;4530.12820576;4203.46153840;4174.99999986;4205.12820506
4205.38461532;4204.35897429;4072.69230735;4235.25641026;4103.07692280;1971.15384136;229.99999153;-0.00000896;4135.38461518;4273.46153853;4241.53846154;4305.25641040;4138.71794851;4203.20512814;4175.64102551;4205.12820506
4204.74358968;4203.84615378;4368.46153874;4234.23076923;4236.92307693;1942.69230283;40.38460649;-0.00000896;4136.15384595;4271.66666674;4303.46153860;4306.66666681;4337.94871816;4203.20512814;4175.38461525;4205.12820506
4205.76923070;4202.56410250;4863.71795004;4235.64102564;4760.76923188;1970.51281572;1.15383719;-0.00000896;4137.56410236;4299.74358989;4661.41025732;4306.79487194;4699.48718046;4203.33333327;4174.23076910;4205.12820506
4206.79487173;4202.30769224;4005.76923029;4234.87179488;4103.33333306;1971.28204649;229.99999153;-0.00000896;4137.82051262;4267.82051289;4041.41025600;4304.87179501;4076.28205094;4203.20512814;4175.12820499;4205.12820506
4205.64102558;4202.43589737;4758.97436009;4235.25641026;4632.94871879;1970.12820034;1.15383719;-0.00000896;4137.05128185;4271.15384623;4471.28205177;4305.76923091;4470.51282100;4203.97435891;4174.87179474;4205.12820506
4206.15384609;4202.94871788;4693.46153944;4236.02564103;4566.79487249;1973.46153367;229.99999153;-0.00000896;4137.82051262;4267.43589751;4761.53846265;4303.97435912;4696.15384713;4202.94871788;4175.12820499;4205.12820506
4205.12820506;4203.71794865;4536.92307755;4237.05128206;4372.69230797;1969.99999521;1.15383719;-0.00000896;4138.71794851;4269.74358982;4504.23076979;4304.48717963;4693.46153944;4204.23076917;4175.12820499;4205.12820506
4205.25641019;4202.56410250;4565.64102634;4236.15384616;4630.64102648;1972.69230290;229.99999153;-0.00000896;4110.51282024;4269.23076930;4693.33333431;4304.87179501;4535.38461601;4203.33333327;4175.12820499;4205.12820506
4204.99999993;4203.84615378;4700.00000098;4237.43589744;4729.10256515;1969.23076444;1.15383719;-0.00000896;4109.74358947;4272.43589751;4667.94871886;4305.64102578;4695.12820610;4203.07692301;4175.76923063;4205.12820506
4204.74358968;4204.10256404;4044.23076882;4237.43589744;4172.82051269;1975.38461059;229.99999153;-0.00000896;4109.35897408;4271.15384623;4142.69230749;4304.23076937;4103.71794844;4204.48717942;4175.12820499;4205.12820506
4205.76923070;4204.23076917;4071.53846119;4237.43589744;4007.43589695;1971.41025162;1.15383719;-0.00000896;4107.17948691;4300.89743604;4107.56410229;4306.02564117;4039.74358933;4204.10256404;4174.99999986;4205.12820506
4206.41025634;4203.58974352;4497.94871851;4236.79487180;4531.79487242;1943.71794386;229.99999153;-0.00000896;4107.30769203;4273.07692315;4463.58974408;4305.25641040;4336.41025662;4203.97435891;4175.89743576;4205.12820506
4206.53846147;4201.79487173;3978.33333278;4236.41025641;4042.30769189;1970.38461059;1.15383719;-0.00000896;4109.10256383;4273.07692315;3873.58974283;4305.25641040;3941.66666605;4203.84615378;4175.76923063;4205.12820506
4206.53846147;4202.56410250;4766.92307804;4236.15384616;4696.66666764;1972.82050803;229.99999153;-0.00000896;4106.66666639;4270.64102571;5155.76923272;4305.00000014;5021.53846321;4204.61538455;4174.61538448;4205.12820506
4205.51282045;4203.97435891;4073.84615350;4235.64102564;4172.30769217;1972.56409777;1.15383719;-0.00000896;4108.46153819;4270.89743597;4141.28205108;4307.56410271;4106.02564075;4202.94871788;4175.64102551;4205.12820506
4205.38461532;4202.94871788;4469.10256459;4235.38461539;4430.89743632;1974.23076444;229.99999153;-0.00000896;4108.20512793;4272.82051289;4371.66666695;4304.35897450;4437.94871837;4203.07692301;4175.25641012;4205.12820506
4205.89743583;4203.71794865;4730.89743694;4235.51282052;4663.20512911;1971.53845675;1.15383719;-0.00000896;4108.97435870;4271.66666674;4827.56410382;4306.79487194;4831.28205254;4202.94871788;4175.12820499;4205.12820506
4205.76923070;4203.97435891;4404.48717984;4235.25641026;4335.12820534;1972.94871316;229.99999153;-0.00000896;4108.33333306;4271.41025648;4401.15384651;4305.76923091;4499.61538518;4203.84615378;4176.15384602;4205.12820506
4206.66666660;4202.43589737;4496.79487235;4234.61538462;4402.30769266;1971.79486700;1.15383719;-0.00000896;4108.20512793;4269.74358982;4496.53846210;4305.12820527;4499.23076979;4204.99999993;4175.25641012;4205.12820506
4205.25641019;4203.84615378;4599.48718026;4235.00000000;4497.17948774;1969.87179008;229.99999153;-0.00000896;4107.82051255;4274.48717956;4499.23076979;4305.25641040;4598.20512897;4203.58974352;4175.38461525;4205.12820506
4204.61538455;4202.30769224;4464.74359023;4234.87179488;4503.84615441;1971.53845675;1.15383719;-0.00000896;4109.74358947;4273.46153853;4566.15384685;4303.84615399;4304.74358989;4201.92307686;4175.51282038;4205.12820506
4205.64102558;4201.92307686;4795.76923195;4208.97435891;4566.92307762;1942.05127719;229.99999153;-0.00000896;4110.12820485;4274.35897443;4697.05128303;4303.20512835;4699.48718046;4203.58974352;4201.02564096;4205.12820506
4205.25641019;4202.05128199;4729.35897541;4234.87179488;4568.58974429;1943.84614899;1.15383719;-0.00000896;4110.12820485;4270.76923084;4598.71794949;4304.48717963;4732.69230874;4202.94871788;4175.12820499;4205.12820506
4204.74358968;4201.92307686;4103.58974332;4234.74358975;4073.20512786;1944.48717463;229.99999153;-0.00000896;4135.89743569;4299.61538476;4204.23076917;4303.84615399;4302.43589758;4202.69230763;4175.76923063;4205.12820506
4204.23076917;4202.43589737;4337.94871816;4235.76923077;4436.92307734;1969.99999521;1.15383719;-0.00000896;4135.51282031;4268.20512828;4207.05128199;4304.48717963;4268.46153853;4202.82051275;4175.89743576;4205.12820506
4204.35897429;4202.30769224;4566.53846224;4234.74358975;4437.94871837;1971.53845675;229.99999153;-0.00000896;4135.76923056;4273.33333341;4665.89743680;4303.33333348;4699.35897534;4202.56410250;4175.38461525;4205.12820506
4204.23076917;4202.69230763;3942.05128143;4235.89743590;4010.64102516;1943.20512334;1.15383719;-0.00000896;4108.84615357;4273.07692315;3938.58974297;4305.64102578;3905.89743521;4203.07692301;4175.38461525;4205.12820506
4204.99999993;4202.17948711;4861.15384748;4234.61538462;4825.89743715;1970.64102085;229.99999153;-0.00000896;4110.12820485;4274.35897443;4826.92307818;4302.94871809;4665.38461629;4203.97435891;4175.51282038;4205.12820506
4205.12820506;4201.92307686;4465.38461587;4235.64102564;4502.30769287;1971.41025162;1.15383719;-0.00000896;4108.97435870;4268.20512828;4467.30769280;4305.38461553;4470.89743639;4203.33333327;4202.56410250;4205.12820506
4205.25641019;4201.66666660;4305.89743604;4235.76923077;4300.51282066;1970.12820034;229.99999153;-0.00000896;4110.12820485;4273.97435905;4336.92307714;4304.10256425;4239.61538462;4203.07692301;4175.25641012;4205.12820506
4205.64102558;4202.05128199;4627.82051366;4236.02564103;4535.00000063;1970.38461059;-0.00000896;-0.00000896;4108.84615357;4270.00000007;4597.17948795;4305.00000014;4697.17948816;4202.43589737;4173.97435884;4205.12820506
4205.89743583;4201.41025634;4501.53846210;4236.02564103;4468.07692357;1971.66666188;-0.00000896;-0.00000896;4135.76923056;4273.84615392;4436.79487222;4304.10256425;4665.64102655;4204.61538455;4174.87179474;4205.12820506
4205.64102558;4202.30769224;4044.74358933;4235.12820513;4038.46153805;1972.56409777;-0.00000896;-0.00000896;4110.64102537;4271.66666674;3944.61538399;4305.76923091;4039.10256369;4202.56410250;4174.61538448;4205.12820506
4205.38461532;4202.69230763;4600.76923154;4236.41025641;4693.46153944;1972.56409777;229.99999153;-0.00000896;4109.35897408;4267.17948725;4665.89743680;4306.66666681;4566.02564172;4202.82051275;4175.12820499;4205.12820506
4204.48717942;4202.82051275;4432.56410298;4235.12820513;4432.56410298;1942.94871309;229.99999153;-0.00000896;4109.61538434;4272.05128212;4533.71794935;4304.74358989;4469.74359023;4202.94871788;4175.12820499;4205.12820506
4205.12820506;4203.58974352;4532.30769294;4237.05128206;4565.12820583;1970.12820034;229.99999153;-0.00000896;4108.33333306;4270.25641033;4766.79487291;4306.28205142;4565.51282121;4203.97435891;4172.30769217;4205.12820506
4204.35897429;4202.82051275;4143.46153826;4235.51282052;4139.48717928;1971.28204649;229.99999153;-0.00000896;4108.58974332;4273.07692315;3975.38461483;4305.00000014;4102.82051255;4203.97435891;4175.51282038;4205.12820506
4205.25641019;4204.35897429;4602.69230846;4235.76923077;4463.71794921;1975.76922598;-0.00000896;-0.00000896;4106.53846126;4272.56410264;4730.38461643;4304.48717963;4634.23077007;4203.33333327;4175.25641012;4205.12820506
4205.38461532;4204.61538455;3974.35897381;4235.64102564;4010.51282003;1943.71794386;-0.00000896;-0.00000896;4106.02564075;4300.38461553;4040.51282010;4304.74358989;4011.66666618;4202.69230763;4174.99999986;4205.12820506
4205.25641019;4204.87179481;4437.69230811;4236.28205129;4401.15384651;1970.12820034;-0.00000896;-0.00000896;4107.56410229;4270.38461546;4269.48717956;4305.89743604;4436.02564145;4205.12820506;4173.84615371;4205.12820506
4206.92307686;4201.28205122;4305.38461553;4234.87179488;4336.15384637;1943.20512334;-0.00000896;-0.00000896;4108.58974332;4271.28205136;4405.76923112;4305.64102578;4400.51282086;4203.07692301;4175.38461525;4205.12820506
4205.64102558;4202.69230763;4238.84615385;4236.66666667;4208.46153840;1970.76922598;-0.00000896;-0.00000896;4109.61538434;4273.71794879;4337.94871816;4302.56410271;4301.02564117;4203.20512814;4201.66666660;4205.12820506
4206.41025634;4201.79487173;4038.46153805;4234.87179488;4009.48717900;1972.30768752;-0.00000896;-0.00000896;4109.48717921;4270.00000007;3908.97435828;4305.76923091;3977.05128150;4203.33333327;4175.25641012;4205.12820506
4204.61538455;4203.46153840;4438.46153888;4234.61538462;4405.12820548;1975.25640547;-0.00000896;-0.00000896;4109.61538434;4267.56410264;4404.23076958;4303.84615399;4205.64102558;4203.20512814;4175.38461525;4205.12820506
4205.12820506;4205.12820506;4634.61538545;4235.25641026;4628.71794956;1973.20512341;-0.00000896;-0.00000896;4109.10256383;4270.64102571;4562.05128275;4305.25641040;4602.56410333;4202.82051275;4175.12820499;4205.12820506
4205.76923070;4204.10256404;4726.41025746;4234.10256411;4529.35897499;1971.92307213;-0.00000896;-0.00000896;4108.58974332;4274.10256418;4861.28205261;4305.51282066;4796.28205247;4202.56410250;4175.51282038;4205.12820506
4205.25641019;4203.58974352;3972.94871740;4235.76923077;4011.28205080;1944.23076437;-0.00000896;-0.00000896;4108.58974332;4299.74358989;4005.89743541;4304.48717963;4142.56410236;4202.69230763;4201.41025634;4205.12820506
4205.76923070;4202.82051275;4009.35897388;4233.97435898;3974.61538406;1973.46153367;-0.00000896;-0.00000896;4108.58974332;4270.76923084;4139.61538441;4306.79487194;3945.12820451;4202.05128199;4174.99999986;4205.12820506
4205.38461532;4203.46153840;4110.51282024;4235.12820513;4237.17948718;1969.61537982;-0.00000896;-0.00000896;4109.87179460;4274.61538469;4235.64102564;4305.89743604;4203.97435891;4202.94871788;4175.38461525;4205.12820506
4204.74358968;4204.48717942;4496.41025697;4235.51282052;4596.28205205;1972.43589265;-0.00000896;-0.00000896;4110.12820485;4270.00000007;4533.97435960;4302.82051296;4400.38461574;4203.33333327;4175.25641012;4205.12820506
4205.12820506;4203.71794865;4137.05128185;4236.28205129;4171.15384602;1970.76922598;-0.00000896;-0.00000896;4135.38461518;4273.84615392;3976.92307637;4304.87179501;4105.38461511;4204.10256404;4172.82051269;4205.12820506
4204.74358968;4203.20512814;4436.79487222;4234.23076923;4268.84615392;1969.99999521;-0.00000896;-0.00000896;4135.38461518;4270.00000007;4602.94871872;4304.48717963;4499.61538518;4203.97435891;4175.25641012;4205.12820506
4205.38461532;4202.43589737;4436.02564145;4235.89743590;4566.92307762;1972.05127726;-0.00000896;-0.00000896;4135.76923056;4269.10256418;4697.43589841;4304.23076937;4596.66666743;4203.07692301;4173.97435884;4205.12820506
4205.12820506;4203.07692301;4236.92307693;4236.15384616;4204.87179481;1973.97435418;-0.00000896;-0.00000896;4108.58974332;4271.92307700;4500.64102620;4306.53846168;4237.05128206;4204.99999993;4175.38461525;4205.12820506
4204.61538455;4202.69230763;4533.84615448;4236.02564103;4596.28205205;1970.12820034;-0.00000896;-0.00000896;4108.97435870;4269.74358982;4502.94871851;4305.64102578;4564.23076993;4202.82051275;4202.43589737;4205.12820506
4204.61538455;4202.56410250;4270.51282059;4237.05128206;4241.53846154;1943.20512334;-0.00000896;-0.00000896;4106.92307665;4273.33333341;4207.56410250;4306.02564117;4267.69230777;4204.23076917;4174.87179474;4205.12820506
4205.25641019;4203.84615378;4106.15384588;4236.15384616;4071.41025607;1970.38461059;-0.00000896;-0.00000896;4106.92307665;4274.48717956;4138.46153826;4305.12820527;4043.97435856;4204.10256404;4175.25641012;4205.12820506
4205.25641019;4204.10256404;4463.71794921;4236.15384616;4436.28205170;1969.48717470;-0.00000896;-0.00000896;4108.20512793;4268.97435905;4401.15384651;4306.02564117;4465.00000049;4202.17948711;4204.99999993;4205.12820506
4205.51282045;4202.94871788;4332.94871816;4235.25641026;4207.30769224;1971.15384136;-0.00000896;-0.00000896;4108.07692280;4273.58974366;4240.51282052;4305.64102578;4202.17948711;4203.71794865;4174.99999986;4205.12820506
4205.89743583;4202.17948711;4137.05128185;4235.00000000;4141.66666646;1973.58973880;-0.00000896;-0.00000896;4107.56410229;4267.30769238;4201.92307686;4304.87179501;4075.89743555;4203.46153840;4175.12820499;4205.12820506
4204.99999993;4202.94871788;4731.28205233;4235.38461539;4600.25641102;1972.30768752;-0.00000896;-0.00000896;4107.94871767;4269.48717956;4666.66666757;4304.23076937;4797.05128324;4202.43589737;4175.76923063;4205.12820506
4205.38461532;4202.94871788;4566.92307762;4235.38461539;4334.23076944;1972.30768752;229.99999153;-0.00000896;4108.20512793;4268.97435905;4632.17948802;4306.15384630;4530.00000063;4203.20512814;4174.99999986;4205.12820506
4204.99999993;4204.35897429;4500.12820569;4235.89743590;4400.25641061;1970.25640547;-0.00000896;-0.00000896;4108.33333306;4273.84615392;4267.82051289;4305.89743604;4471.28205177;4202.82051275;4175.38461525;4205.12820506
4204.99999993;4203.97435891;4206.66666660;4236.53846154;4268.71794879;1973.58973880;-0.00000896;-0.00000896;4106.41025614;4269.35897443;4303.33333348;4307.43589758;4206.53846147;4203.46153840;4202.94871788;4205.12820506
4204.87179481;4203.58974352;4075.38461504;4235.00000000;4077.05128171;1970.76922598;-0.00000896;-0.00000896;4106.92307665;4272.94871802;4009.35897388;4305.89743604;4104.35897408;4203.84615378;4175.38461525;4205.12820506
4205.12820506;4203.20512814;4663.46153937;4235.51282052;4567.82051352;1972.30768752;229.99999153;-0.00000896;4107.82051255;4271.79487187;4664.10256501;4304.74358989;4668.58974450;4204.35897429;4201.41025634;4205.12820506
4205.12820506;4203.58974352;4074.99999966;4235.64102564;4239.23076923;1970.51281572;229.99999153;-0.00000896;4107.17948691;4274.35897443;4173.71794858;4305.64102578;4105.38461511;4204.35897429;4175.51282038;4205.12820506
4206.66666660;4202.94871788;4274.10256418;4234.10256411;4203.84615378;1973.20512341;229.99999153;-0.00000896;4108.84615357;4241.53846154;4332.69230790;4306.41025655;4366.79487208;4204.48717942;4175.12820499;4205.12820506
4205.76923070;4203.07692301;4601.02564179;4235.89743590;4699.10256508;1944.23076437;229.99999153;-0.00000896;4135.38461518;4272.82051289;4730.25641130;4305.89743604;4630.76923161;4204.74358968;4173.71794858;4205.12820506
4204.99999993;4202.56410250;4825.89743715;4235.00000000;4726.66666771;1973.97435418;229.99999153;-0.00000896;4109.10256383;4271.02564110;4635.51282135;4306.66666681;4498.71794928;4204.48717942;4175.51282038;4205.12820506
4204.74358968;4203.58974352;4435.76923119;4236.15384616;4497.05128261;1969.35896957;229.99999153;-0.00000896;4109.87179460;4270.38461546;4307.30769245;4304.61538476;4663.71794963;4205.12820506;4175.38461525;4205.12820506
4205.64102558;4202.17948711;4530.76923140;4235.51282052;4306.28205142;1974.23076444;229.99999153;-0.00000896;4109.10256383;4270.12820520;4562.56410326;4304.10256425;4733.58974464;4203.71794865;4175.38461525;4205.12820506
4205.25641019;4203.84615378;4501.66666723;4235.64102564;4470.25641075;1970.64102085;229.99999153;-0.00000896;4108.58974332;4270.64102571;4273.33333341;4306.66666681;4437.94871837;4204.23076917;4173.71794858;4205.12820506
4205.64102558;4203.97435891;4504.10256466;4235.25641026;4469.61538511;1969.99999521;229.99999153;-0.00000896;4108.71794844;4274.35897443;4729.48718053;4304.23076937;4503.20512876;4203.33333327;4175.38461525;4205.12820506
4205.89743583;4203.97435891;4634.35897520;4235.76923077;4699.87179585;1972.05127726;229.99999153;-0.00000896;4108.33333306;4270.00000007;4601.41025718;4304.23076937;4663.20512911;4203.84615378;4201.28205122;4205.12820506
4205.89743583;4202.94871788;4141.15384595;4235.25641026;4173.58974345;1944.23076437;229.99999153;-0.00000896;4109.10256383;4300.64102578;4238.46153847;4303.20512835;4203.84615378;4203.97435891;4175.51282038;4205.12820506
4205.12820506;4202.69230763;4399.74359009;4235.76923077;4174.10256397;1974.10255931;229.99999153;-0.00000896;4108.20512793;4272.05128212;4236.79487180;4305.38461553;4305.25641040;4203.07692301;4175.12820499;4205.12820506
4205.64102558;4201.79487173;4698.71794969;4235.64102564;4596.66666743;1969.87179008;229.99999153;-0.00000896;4110.38461511;4271.66666674;4728.46153951;4304.61538476;4865.25641158;4202.30769224;4175.38461525;4205.12820506
4205.51282045;4202.69230763;3938.46153784;4234.74358975;3971.41025586;1971.66666188;229.99999153;-0.00000896;4109.35897408;4270.38461546;3912.43589674;4305.25641040;3973.33333278;4203.07692301;4175.25641012;4205.12820506
4205.38461532;4202.82051275;5057.82051456;4235.64102564;4990.25641186;1944.48717463;229.99999153;-0.00000896;4108.97435870;4270.64102571;4797.94871913;4305.64102578;4863.58974491;4203.71794865;4202.43589737;4205.12820506
4204.87179481;4202.82051275;4042.69230728;4235.38461539;4139.99999980;1972.82050803;229.99999153;-0.00000896;4107.56410229;4273.71794879;4070.89743555;4304.74358989;4044.61538420;4203.71794865;4175.51282038;4205.12820506
4205.38461532;4203.84615378;4467.94871844;4236.28205129;4403.71794907;1970.89743111;229.99999153;-0.00000896;4107.30769203;4268.20512828;4434.35897478;4303.84615399;4340.00000021;4204.61538455;4175.64102551;4205.12820506
4204.99999993;4202.30769224;4696.28205226;4235.00000000;4759.61538573;1974.61537982;229.99999153;-0.00000896;4106.28205101;4269.61538469;4696.92307790;4305.38461553;4634.35897520;4202.17948711;4174.99999986;4205.12820506
4205.12820506;4203.58974352;4432.05128247;4234.35897436;4566.92307762;1943.71794386;229.99999153;-0.00000896;4106.15384588;4272.56410264;4630.64102648;4305.89743604;4401.53846189;4202.43589737;4175.64102551;4205.12820506
4206.41025634;4202.56410250;4464.23076972;4234.23076923;4438.46153888;1973.33332854;229.99999153;-0.00000896;4104.48717921;4271.92307700;4535.25641089;4307.43589758;4631.66666750;4203.46153840;4174.99999986;4205.12820506
4206.02564096;4202.69230763;4172.94871781;4234.74358975;4170.25641012;1969.99999521;229.99999153;-0.00000896;4106.66666639;4271.15384623;4103.71794844;4304.48717963;4238.71794872;4203.97435891;4173.84615371;4205.12820506
4206.53846147;4202.94871788;4336.66666688;4234.23076923;4433.33333375;1943.46153360;229.99999153;-0.00000896;4108.46153819;4271.92307700;4438.20512863;4306.41025655;4398.33333368;4202.82051275;4175.25641012;4205.12820506
4205.89743583;4201.41025634;4693.71794969;4234.23076923;4500.25641082;1942.82050796;229.99999153;-0.00000896;4109.61538434;4270.25641033;4634.87179571;4304.61538476;4532.69230832;4203.07692301;4201.41025634;4205.12820506
4204.61538455;4201.28205122;4759.61538573;4234.48717949;4627.94871879;1973.46153367;229.99999153;-0.00000896;4109.23076896;4268.71794879;4793.97436016;4307.30769245;4764.61538573;4202.69230763;4175.51282038;4205.12820506
4204.48717942;4203.20512814;4176.28205115;4208.71794865;4139.61538441;1970.38461059;229.99999153;-0.00000896;4109.23076896;4272.94871802;4044.48717907;4305.64102578;4135.51282031;4203.46153840;4175.38461525;4205.12820506
4203.71794865;4203.20512814;4304.87179501;4233.84615385;4403.07692343;1975.38461059;229.99999153;-0.00000896;4109.23076896;4270.00000007;4504.48718005;4302.94871809;4398.46153881;4203.46153840;4201.15384609;4205.12820506
4204.23076917;4203.33333327;4628.71794956;4234.23076923;4630.89743674;1974.74358495;229.99999153;-0.00000896;4107.82051255;4269.23076930;4628.33333417;4332.43589765;4635.38461622;4204.23076917;4174.87179474;4205.12820506
4203.84615378;4203.07692301;4667.05128296;4235.12820513;4732.56410361;1971.66666188;229.99999153;-0.00000896;4108.07692280;4274.74358982;4727.43589848;4303.58974373;4663.84615475;4203.07692301;4174.87179474;4205.12820506
4205.12820506;4202.43589737;4371.79487208;4235.00000000;4467.69230818;1969.74358495;229.99999153;-0.00000896;4108.20512793;4270.89743597;4465.25641075;4304.35897450;4271.41025648;4203.07692301;4174.87179474;4205.12820506
4206.15384609;4202.43589737;4304.48717963;4235.00000000;4367.82051310;1972.82050803;229.99999153;-0.00000896;4110.51282024;4271.41025648;4565.51282121;4304.23076937;4468.84615434;4204.35897429;4176.28205115;4205.12820506
4205.89743583;4202.30769224;4631.02564186;4234.10256411;4302.05128219;1971.15384136;229.99999153;-0.00000896;4135.38461518;4271.41025648;4432.30769273;4303.46153860;4562.82051352;4204.35897429;4175.51282038;4205.12820506
4204.99999993;4202.94871788;4760.00000112;4235.12820513;4693.33333431;1971.28204649;229.99999153;-0.00000896;4136.79487159;4272.05128212;4698.58974457;4303.84615399;4733.71794976;4203.97435891;4201.41025634;4205.12820506
4205.38461532;4202.43589737;4796.66666785;4234.61538462;4760.51282163;1972.17948239;229.99999153;-0.00000896;4110.38461511;4268.07692315;4530.00000063;4305.00000014;4570.12820583;4204.61538455;4175.12820499;4205.12820506
4204.99999993;4202.69230763;4008.58974311;4236.53846154;4037.17948677;1944.10255924;-0.00000896;-0.00000896;4136.53846133;4267.82051289;4104.10256383;4305.51282066;3978.33333278;4204.74358968;4172.69230756;4205.12820506
4205.25641019;4202.82051275;4170.89743576;4235.51282052;4039.48717907;1969.35896957;-0.00000896;-0.00000896;4109.48717921;4268.97435905;4007.56410208;4304.61538476;4241.66666667;4204.61538455;4175.51282038;4205.12820506
4205.38461532;4202.69230763;4274.35897443;4236.66666667;4270.12820520;1970.89743111;229.99999153;-0.00000896;4108.07692280;4273.97435905;4237.43589744;4305.38461553;4202.17948711;4204.10256404;4174.87179474;4205.12820506
4205.64102558;4202.43589737;4798.46153965;4237.82051282;4563.97435967;1973.07691829;-0.00000896;-0.00000896;4106.79487152;4267.69230777;4729.74359079;4303.46153860;4727.17948823;4202.82051275;4201.15384609;4205.12820506
4205.12820506;4204.35897429;4404.10256445;4236.02564103;4404.10256445;1971.79486700;-0.00000896;-0.00000896;4106.66666639;4272.30769238;4729.61538566;4305.89743604;4562.56410326;4204.74358968;4175.38461525;4205.12820506
4205.89743583;4202.94871788;4532.17948781;4236.53846154;4504.35897492;1972.17948239;-0.00000896;-0.00000896;4106.79487152;4266.66666674;4498.33333389;4303.71794886;4529.23076986;4203.46153840;4175.38461525;4205.12820506
4205.89743583;4202.69230763;4464.10256459;4236.53846154;4434.48717991;1943.58973873;-0.00000896;-0.00000896;4107.56410229;4270.89743597;4569.74359044;4306.15384630;4499.61538518;4204.10256404;4174.87179474;4205.12820506
4205.51282045;4202.94871788;4432.17948760;4235.51282052;4633.58974443;1971.92307213;-0.00000896;-0.00000896;4107.05128178;4269.10256418;4564.48718019;4304.61538476;4530.76923140;4204.23076917;4176.15384602;4205.12820506
4205.51282045;4203.58974352;4366.92307720;4235.12820513;4175.64102551;1971.02563623;-0.00000896;-0.00000896;4107.43589716;4270.76923084;4501.41025697;4306.28205142;4404.74359009;4204.23076917;4174.99999986;4205.12820506
4205.51282045;4203.58974352;4733.97436002;4236.15384616;4797.69230888;1971.79486700;-0.00000896;-0.00000896;4106.15384588;4271.53846161;4799.10256529;4304.23076937;4696.15384713;4205.76923070;4176.15384602;4205.12820506
4205.25641019;4203.58974352;4337.56410278;4234.61538462;4337.43589765;1944.35896950;-0.00000896;-0.00000896;4108.46153819;4270.38461546;4405.76923112;4306.41025655;4365.76923105;4204.61538455;4175.25641012;4205.12820506
4205.25641019;4203.33333327;4568.46153916;4235.25641026;4532.56410319;1972.43589265;-0.00000896;-0.00000896;4107.05128178;4268.33333341;4629.23077007;4305.25641040;4530.89743653;4203.71794865;4201.79487173;4205.12820506
4204.87179481;4204.87179481;4271.53846161;4235.12820513;4339.35897457;1972.30768752;-0.00000896;-0.00000896;4106.79487152;4272.82051289;4268.07692315;4305.51282066;4237.30769231;4203.71794865;4174.99999986;4205.12820506
4205.64102558;4203.07692301;4728.33333438;4234.48717949;4635.38461622;1973.20512341;-0.00000896;-0.00000896;4107.43589716;4268.07692315;4791.79487298;4305.76923091;4698.46153944;4204.87179481;4175.25641012;4205.12820506
4205.12820506;4203.20512814;4530.64102627;4235.12820513;4597.69230846;1970.12820034;-0.00000896;-0.00000896;4108.97435870;4272.94871802;4568.46153916;4305.38461553;4569.23076993;4203.97435891;4173.84615371;4205.12820506
4205.38461532;4202.05128199;4467.43589793;4234.35897436;4498.84615441;1973.07691829;-0.00000896;-0.00000896;4109.10256383;4271.79487187;4565.51282121;4303.58974373;4398.71794907;4205.64102558;4175.25641012;4205.12820506
4204.99999993;4202.30769224;4337.94871816;4235.38461539;4240.64102564;1972.05127726;-0.00000896;-0.00000896;4135.51282031;4267.94871802;4269.74358982;4304.74358989;4170.89743576;4207.17948711;4175.51282038;4205.12820506
4204.87179481;4201.79487173;4668.46153937;4235.51282052;4728.97436002;1972.43589265;-0.00000896;-0.00000896;4135.38461518;4270.12820520;4728.46153951;4303.84615399;4666.15384706;4203.71794865;4175.12820499;4205.12820506
4204.61538455;4202.30769224;4799.61538580;4235.89743590;4760.51282163;1943.46153360;-0.00000896;-0.00000896;4109.35897408;4300.76923091;4667.43589834;4305.89743604;4631.02564186;4204.23076917;4175.38461525;4205.12820506
4204.35897429;4202.82051275;3844.61538379;4237.43589744;4008.97435849;1972.17948239;-0.00000896;-0.00000896;4108.84615357;4269.48717956;4040.89743548;4305.89743604;4011.15384567;4205.76923070;4175.12820499;4205.12820506
4204.35897429;4202.17948711;4530.76923140;4236.79487180;4401.41025676;1971.92307213;-0.00000896;-0.00000896;4108.97435870;4268.84615392;4404.87179522;4306.53846168;4402.17948753;4204.35897429;4201.28205122;4205.12820506
4205.38461532;4202.82051275;4175.64102551;4236.79487180;4307.56410271;1973.07691829;-0.00000896;-0.00000896;4105.89743562;4269.74358982;4171.02564089;4306.15384630;4136.41025621;4203.97435891;4174.87179474;4205.12820506
4205.76923070;4202.82051275;4863.33333466;4237.30769231;4601.41025718;1972.56409777;-0.00000896;-0.00000896;4107.94871767;4267.94871802;4793.46153965;4305.25641040;4830.25641151;4203.46153840;4175.12820499;4205.12820506
4205.12820506;4202.82051275;4497.17948774;4236.53846154;4630.00000084;1971.28204649;-0.00000896;-0.00000896;4107.69230742;4266.92307700;4500.12820569;4305.76923091;4631.15384699;4203.07692301;4175.25641012;4205.12820506
4205.38461532;4202.69230763;4369.48717977;4236.41025641;4339.35897457;1973.33332854;-0.00000896;-0.00000896;4104.87179460;4271.28205136;4339.87179508;4306.53846168;4466.28205177;4204.10256404;4175.12820499;4205.12820506
4205.51282045;4202.30769224;3944.61538399;4236.15384616;3874.61538385;1969.61537982;-0.00000896;-0.00000896;4106.28205101;4268.71794879;4042.82051241;4306.15384630;4106.66666639;4204.10256404;4201.53846147;4205.12820506
4204.87179481;4203.46153840;4176.02564089;4234.87179488;4176.02564089;1974.10255931;-0.00000896;-0.00000896;4104.61538434;4267.05128212;4301.02564117;4306.15384630;4104.87179460;4204.35897429;4175.25641012;4205.12820506
4204.35897429;4202.82051275;4010.51282003;4235.12820513;4042.05128164;1971.15384136;-0.00000896;-0.00000896;4104.87179460;4241.92307693;4206.15384609;4305.51282066;4140.12820492;4204.87179481;4174.61538448;4205.12820506
4204.35897429;4203.46153840;4398.46153881;4208.84615378;4271.66666674;1972.56409777;229.99999153;-0.00000896;4104.61538434;4267.43589751;4335.64102585;4305.38461553;4304.23076937;4202.05128199;4174.99999986;4205.12820506
4204.74358968;4203.33333327;4595.12820590;4234.74358975;4566.92307762;1969.74358495;229.99999153;-0.00000896;4105.51282024;4266.79487187;4629.35897520;4305.51282066;4565.64102634;4203.97435891;4175.12820499;4205.12820506
4204.23076917;4204.23076917;4267.05128212;4235.25641026;4170.76923063;1971.02563623;229.99999153;-0.00000896;4105.25640998;4299.61538476;4174.87179474;4305.00000014;4137.05128185;4203.84615378;4175.51282038;4205.12820506
4205.12820506;4203.58974352;4694.61538559;4234.10256411;4827.82051408;1971.92307213;229.99999153;-0.00000896;4106.66666639;4267.82051289;4994.23077083;4306.15384630;4731.15384720;4203.20512814;4175.51282038;4205.12820506
4204.35897429;4203.71794865;4142.30769210;4208.97435891;4168.58974345;1974.35896957;-0.00000896;-0.00000896;4106.79487152;4271.28205136;4238.71794872;4305.00000014;4202.82051275;4203.58974352;4174.99999986;4205.12820506
4204.87179481;4203.97435891;4498.58974415;4235.12820513;4664.10256501;1975.51281572;-0.00000896;-0.00000896;4105.89743562;4272.56410264;4694.61538559;4304.35897450;4503.07692364;4204.23076917;4173.20512807;4205.12820506
4205.64102558;4203.58974352;4433.71794914;4233.97435898;4272.69230777;1970.76922598;229.99999153;-0.00000896;4107.69230742;4267.30769238;4370.12820541;4306.79487194;4635.38461622;4204.23076917;4175.51282038;4205.12820506
4205.38461532;4203.84615378;4007.82051234;4234.10256411;4135.89743569;1941.66666181;-0.00000896;-0.00000896;4109.99999973;4300.51282066;4106.28205101;4306.66666681;4268.20512828;4204.23076917;4174.87179474;4205.12820506
4206.15384609;4201.41025634;4828.71794997;4208.97435891;4665.64102655;1972.30768752;229.99999153;-0.00000896;4136.79487159;4273.97435905;4832.69230895;4305.12820527;4894.48718088;4204.48717942;4201.79487173;4205.12820506
4204.23076917;4201.41025634;4633.97435981;4208.71794865;4436.28205170;1975.38461059;-0.00000896;-0.00000896;4136.15384595;4268.97435905;4762.17948830;4305.38461553;4635.64102648;4203.33333327;4175.38461525;4205.12820506
4203.97435891;4202.05128199;3944.35897374;4234.35897436;3907.94871726;1973.97435418;229.99999153;-0.00000896;4136.15384595;4271.53846161;3844.48717866;4306.15384630;4041.02564061;4204.23076917;4175.64102551;4205.12820506
4203.07692301;4203.20512814;4468.97435946;4234.10256411;4628.07692391;1975.25640547;-0.00000896;-0.00000896;4135.89743569;4241.53846154;4562.94871865;4306.28205142;4471.53846203;4202.56410250;4174.99999986;4205.12820506
4202.82051275;4202.56410250;4498.20512876;4235.64102564;4533.33333396;1969.87179008;229.99999153;-0.00000896;4136.02564082;4299.87179501;4529.23076986;4303.97435912;4471.41025690;4203.07692301;4175.12820499;4205.12820506
4203.84615378;4203.20512814;4436.92307734;4236.41025641;4530.12820576;1973.33332854;-0.00000896;-0.00000896;4109.10256383;4268.97435905;4797.69230888;4306.79487194;4533.20512883;4203.58974352;4175.25641012;4205.12820506
4203.71794865;4203.33333327;4339.87179508;4235.64102564;4204.10256404;1944.48717463;229.99999153;-0.00000896;4108.07692280;4270.00000007;4633.97435981;4307.30769245;4368.33333362;4203.84615378;4174.10256397;4205.12820506
4205.25641019;4203.84615378;4635.38461622;4236.15384616;4465.76923126;1972.30768752;-0.00000896;-0.00000896;4107.56410229;4267.56410264;4500.64102620;4305.51282066;4534.35897499;4203.33333327;4175.12820499;4205.12820506
4204.35897429;4202.94871788;4270.89743597;4236.79487180;4401.02564138;1943.20512334;229.99999153;-0.00000896;4107.94871767;4268.97435905;4567.56410326;4303.20512835;4365.12820541;4203.07692301;4175.89743576;4205.12820506
4206.41025634;4202.17948711;4464.35897485;4235.51282052;4599.87179564;1969.61537982;-0.00000896;-0.00000896;4107.17948691;4271.41025648;4594.87179564;4304.35897450;4504.23076979;4202.56410250;4175.12820499;4205.12820506
4206.41025634;4203.07692301;4201.02564096;4236.15384616;4174.74358961;1972.82050803;229.99999153;-0.00000896;4104.99999973;4240.76923077;4267.94871802;4304.48717963;4139.10256390;4203.07692301;4175.25641012;4205.12820506
4205.64102558;4201.66666660;4006.41025593;4235.89743590;4105.64102537;1970.25640547;-0.00000896;-0.00000896;4106.66666639;4271.92307700;4174.10256397;4305.64102578;4174.35897422;4202.94871788;4173.97435884;4205.12820506
4205.64102558;4203.46153840;4628.07692391;4235.25641026;4497.30769287;1972.69230290;229.99999153;-0.00000896;4105.51282024;4267.94871802;4398.33333368;4303.71794886;4564.10256480;4205.12820506;4174.99999986;4205.12820506
4205.51282045;4202.56410250;4568.07692378;4236.41025641;4595.51282128;1972.82050803;-0.00000896;-0.00000896;4107.43589716;4271.66666674;4629.48718032;4305.25641040;4497.43589800;4204.61538455;4174.99999986;4205.12820506
4204.87179481;4202.94871788;4564.61538531;4235.64102564;4500.25641082;1974.10255931;229.99999153;-0.00000896;4105.25640998;4271.53846161;4468.33333382;4306.28205142;4627.82051366;4202.30769224;4174.74358961;4205.12820506
4205.38461532;4204.61538455;4697.30769328;4236.28205129;4468.46153895;1970.89743111;-0.00000896;-0.00000896;4106.28205101;4270.76923084;4830.38461664;4305.64102578;4726.92307797;4202.94871788;4174.99999986;4205.12820506
4206.53846147;4203.33333327;4170.76923063;4235.64102564;4204.61538455;1972.82050803;229.99999153;-0.00000896;4107.30769203;4269.74358982;4038.33333292;4304.74358989;4106.66666639;4205.76923070;4175.38461525;4205.12820506
4206.28205122;4203.07692301;4467.05128254;4234.74358975;4304.35897450;1969.35896957;-0.00000896;-0.00000896;4108.20512793;4272.56410264;4534.35897499;4305.89743604;4434.74359016;4203.58974352;4175.76923063;4205.12820506
4206.15384609;4203.20512814;4536.66666730;4234.61538462;4499.87179543;1970.89743111;229.99999153;-0.00000896;4109.23076896;4269.87179495;4568.33333403;4305.89743604;4499.10256466;4205.25641019;4174.87179474;4205.12820506
4204.35897429;4203.20512814;4697.30769328;4235.12820513;4696.15384713;1944.48717463;-0.00000896;-0.00000896;4135.89743569;4270.89743597;4635.64102648;4304.35897450;4566.79487249;4204.74358968;4176.15384602;4205.12820506
4205.38461532;4203.71794865;4041.79487138;4235.38461539;4042.82051241;1944.48717463;229.99999153;-0.00000896;4135.38461518;4270.89743597;4107.82051255;4305.38461553;4074.10256376;4204.35897429;4175.64102551;4205.12820506
4204.74358968;4203.97435891;4333.58974380;4236.53846154;4206.15384609;1970.12820034;-0.00000896;-0.00000896;4109.61538434;4269.87179495;4628.46153930;4304.48717963;4463.84615434;4202.94871788;4175.12820499;4205.12820506
4203.46153840;4203.71794865;4661.28205219;4237.17948718;4570.00000070;1969.99999521;229.99999153;-0.00000896;4107.30769203;4269.23076930;4596.41025718;4305.00000014;4728.71794976;4204.61538455;4172.82051269;4205.12820506
4203.58974352;4204.23076917;4274.23076930;4236.92307693;4168.46153833;1969.61537982;-0.00000896;-0.00000896;4105.12820485;4301.41025655;4204.48717942;4305.89743604;4203.84615378;4203.07692301;4174.87179474;4205.12820506
4203.46153840;4202.56410250;4633.97435981;4237.30769231;4667.69230860;1943.58973873;229.99999153;-0.00000896;4104.87179460;4273.33333341;4830.64102690;4303.97435912;4760.12820624;4203.97435891;4175.12820499;4205.12820506
4204.99999993;4202.94871788;4634.23077007;4235.51282052;4634.74359058;1969.87179008;70.38460656;-0.00000896;4103.97435870;4302.82051296;4630.64102648;4332.56410278;4598.20512897;4204.87179481;4175.38461525;4205.12820506
4206.28205122;4202.43589737;4036.92307651;4235.00000000;4141.92307672;1970.12820034;2.69229873;-0.00000896;4104.35897408;4268.20512828;4141.02564082;4307.30769245;4072.94871761;4203.84615378;4174.99999986;4205.12820506
4205.25641019;4202.17948711;4367.82051310;4234.87179488;4267.94871802;1972.82050803;-0.00000896;-0.00000896;4105.64102537;4273.58974366;4499.74359030;4305.89743604;4470.25641075;4203.46153840;4175.12820499;4205.12820506
4204.74358968;4201.79487173;4569.35897506;4234.74358975;4598.58974436;1972.05127726;229.99999153;-0.00000896;4108.07692280;4267.43589751;4861.79487312;4304.87179501;4694.35897534;4203.33333327;4174.35897422;4205.12820506
4204.87179481;4202.30769224;4400.64102599;4235.76923077;4503.58974415;1970.76922598;229.99999153;-0.00000896;4107.30769203;4274.10256418;4792.69230888;4304.74358989;4467.17948767;4204.10256404;4174.74358961;4205.12820506
4204.35897429;4202.30769224;4660.89743680;4235.38461539;4533.33333396;1973.20512341;229.99999153;-0.00000896;4109.10256383;4271.79487187;4596.92307769;4302.56410271;4701.41025739;4203.46153840;4175.64102551;4205.12820506
4203.84615378;4203.33333327;4470.51282100;4235.38461539;4238.07692308;1970.25640547;229.99999153;-0.00000896;4108.97435870;4266.66666674;4567.17948788;4306.41025655;4562.17948788;4203.71794865;4175.51282038;4205.12820506
4202.94871788;4202.94871788;4667.30769321;4234.87179488;4533.58974422;1944.48717463;-0.00000896;-0.00000896;4106.92307665;4302.94871809;4568.97435967;4306.02564117;4632.30769315;4204.61538455;4174.87179474;4205.12820506
4203.07692301;4202.56410250;4566.15384685;4235.38461539;4597.69230846;1944.48717463;-0.00000896;-0.00000896;4104.87179460;4271.15384623;4535.25641089;4306.15384630;4733.20512925;4204.48717942;4202.43589737;4205.12820506
4203.46153840;4202.94871788;4531.02564165;4234.48717949;4569.48718019;1971.41025162;-0.00000896;-0.00000896;4107.17948691;4273.71794879;4825.89743715;4304.23076937;4630.00000084;4204.99999993;4174.99999986;4205.12820506
4202.82051275;4201.79487173;4596.66666743;4235.76923077;4465.64102613;1969.99999521;-0.00000896;-0.00000896;4106.66666639;4267.43589751;4693.58974457;4305.89743604;4630.12820597;4203.58974352;4175.38461525;4205.12820506
4204.10256404;4202.69230763;4465.25641075;4235.25641026;4534.10256473;1971.92307213;-0.00000896;-0.00000896;4108.07692280;4270.51282059;4434.87179529;4305.64102578;4470.12820562;4203.20512814;4175.12820499;4205.12820506
