Gyro-X;Gyro-Z;AF3;Gyro-Y;T7;Acc-X;Pz;QualityData_1;QualityData_2;Acc-Z;Acc-Y;T8;Mag-X;AF4;Mag-Z;Mag-Y;Mag-X;Gyro-X 
2791.28204823;3746.28205024;3419.23076750;5652.56410556;5252.17948934;4138.84615364;-0.00000896;-0.00000896;5517.43590015;5579.74359260;4266.66666674;4041.79487138;5483.84615649;4072.56410222;4241.15384616;2795.25640720
2527.30768870;3775.89743493;3354.74358787;6006.41026017;5287.82051505;4138.20512800;-0.00000896;-0.00000896;5809.23077257;5847.82051623;4240.38461539;4069.87179453;6108.46154243;4044.48717907;4239.35897436;2532.94871434
2365.25640630;3873.20512744;3189.99999778;6369.23077375;5220.25641234;4109.87179460;-0.00000896;-0.00000896;5552.94872073;5942.56410618;4239.35897436;4071.79487145;6505.76923557;4040.12820472;4235.76923077;2369.23076527
2074.61538003;3942.82051220;2956.41025370;6505.51282531;5219.48718158;3485.38461379;-0.00000896;-0.00000896;4600.76923154;7751.92308436;4238.20512821;4103.58974332;6535.00000487;4041.02564061;4208.97435891;2073.97435439
1616.02563547;3547.30769085;3513.07692155;6861.66667223;5356.79487416;3946.28205066;-0.00000896;-0.00000896;6832.05128754;8206.41026482;4236.92307693;4103.71794844;7258.97436537;4039.35897395;4206.66666660;1614.87178932
1644.74358426;3217.05127990;2927.43589466;6929.23077493;5156.28205323;3319.74358780;-0.00000896;-0.00000896;7124.23077535;6768.84615920;4237.43589744;4138.97435877;7194.35898062;4038.20512779;4201.66666660;1647.69230221
2497.43589376;3219.10256195;6664.74359489;6828.07692857;4727.82051387;3418.97435724;-0.00000896;-0.00000896;7753.07693052;6301.66667105;4237.69230770;4139.87179467;7747.43590487;4037.56410215;4175.38461525;2501.02563735
3382.43589563;3680.76922959;3546.79487034;6696.41026163;4924.48718095;4304.10256425;-0.00000896;-0.00000896;6930.12821083;6466.41026114;4238.07692308;4172.05128192;7063.33333931;4038.58974318;4172.82051269;3387.05128025
3847.94871712;4306.53846168;6965.51282628;7390.64103232;4929.35897582;8377.17949594;-0.00000896;-0.00000896;2992.30768967;5975.51282420;4266.66666674;4201.15384609;5817.30769565;4041.28205087;4171.41025628;3847.17948635
4367.56410285;6665.38462053;7816.53846912;6927.94872365;4307.30769245;1812.82050768;-0.00000896;-0.00000896;1511.66666090;5029.48718116;4241.28205129;4204.74358968;3841.41025558;4041.79487138;4174.99999986;4371.79487208
5188.84615587;7353.84616045;7813.33334091;5319.10256640;3184.99999778;2987.94871531;-0.00000896;-0.00000896;6633.58974867;5322.17948948;4267.05128212;4203.97435891;6176.28205539;4043.20512779;4204.99999993;5190.76923279
5781.41025968;6275.25641457;7718.46154583;4891.66666806;3285.51281850;4431.28205170;-0.00000896;-0.00000896;6568.58974853;5158.84615580;4241.79487180;4201.53846147;98.97435022;4043.33333292;4207.56410250;5781.15384942
5749.48718269;5750.51282371;5941.15384977;4135.51282031;4070.51282017;3945.51281989;-0.00000896;-0.00000896;6143.33333737;4168.84615371;4266.92307700;4204.23076917;6833.97436447;4072.30769196;4237.82051282;5747.56410576
5087.69230950;4796.66666785;5715.12820826;3583.58974220;3481.53845994;3811.79487090;-0.00000896;-0.00000896;6736.02564631;3255.89743382;4267.30769238;4174.87179474;2990.12820249;4071.41025607;4237.17948718;5090.64102745
3383.58974179;4270.76923084;5122.17948906;2890.25640741;5087.43589925;3450.64102398;-0.00000896;-0.00000896;7090.00000605;2658.84615051;4269.35897443;4172.69230756;5385.25641269;4069.99999966;4238.97435898;3383.33333153
2100.76922626;4338.58974380;136.02563234;2729.10256091;4008.97435849;2790.89743284;-0.00000896;-0.00000896;6894.35897999;5121.02564291;4241.41025641;4171.15384602;5323.97436127;4041.15384574;4237.94871795;2103.07691856
1806.02563589;3683.71794754;5258.33333549;3221.28204913;5454.23077181;1977.17948239;229.99999153;-0.00000896;6932.30769801;7386.28205796;4241.66666667;4171.28205115;234.23076076;4038.07692266;4208.20512814;1808.20512307
2727.94871476;1839.74358467;7352.69231430;3676.66666549;4072.43589709;4204.48717942;229.99999153;-0.00000896;6602.94872296;7516.79487875;4266.79487187;4169.23076910;565.64101786;4037.94871754;4208.58974352;2727.69230450
3812.56410166;1973.33332854;563.71794094;3880.76923001;5878.20513168;4564.35897506;229.99999153;-0.00000896;5909.35897791;6336.66667112;4241.66666667;4172.69230756;4109.61538434;4011.53846106;4202.82051275;3810.89743500
4766.53846265;2954.61538191;5350.38461775;4402.94871830;5190.64102766;4398.71794907;229.99999153;-0.00000896;6533.71795359;6437.43590210;4241.79487180;4170.25641012;2264.99999583;4010.38461490;4202.56410250;4763.20512932
5319.61538691;3682.69230651;6702.94872316;4929.74359121;5289.74359197;4696.41025739;-0.00000896;-0.00000896;5845.00000341;5186.15384817;4241.79487180;4171.02564089;2168.58973922;4039.23076882;4204.10256404;5321.66666896
5153.46154041;4929.23077069;4176.28205115;4962.82051435;4831.79487305;4695.25641123;7.69229873;-0.00000896;5876.53846502;5547.05128483;4241.79487180;4202.30769224;6534.48718436;4038.84615343;4206.41025634;5157.56410451
4632.30769315;5286.79487402;4304.48717963;5253.58974575;4892.30769370;3977.30769176;229.99999153;-0.00000896;5552.94872073;5710.76923390;4241.79487180;4202.69230763;5218.84615593;4038.07692266;4206.79487173;4632.82051366
4404.23076958;4701.02564200;5616.15384908;5515.76923348;4795.89743708;4467.30769280;7.69229873;-0.00000896;5357.82051519;5481.53846418;4241.79487180;4201.41025634;3845.76922994;4040.25640984;4207.82051275;4403.33333368
4074.99999966;4763.07692419;5350.89743826;5290.25641248;4566.79487249;4369.61538490;229.99999153;-0.00000896;5189.10256612;5875.00000348;4241.79487180;4207.17948711;4631.66666750;4040.64102523;4234.23076923;4074.87179453
4009.87179439;4667.43589834;4667.69230860;5156.02564298;5225.89743799;4074.87179453;7.69229873;-0.00000896;4923.84615531;6436.28205594;4241.79487180;4208.71794865;4727.17948823;4042.56410215;4207.94871788;4009.10256362
4135.51282031;4334.87179508;5812.94872129;5061.79487354;4993.58974519;4369.74359003;229.99999153;-0.00000896;4794.48718067;6040.51282434;4241.79487180;4208.84615378;4108.20512793;4042.56410215;4233.84615385;4140.25641005
4369.61538490;4467.82051331;3518.07692155;4728.46153951;4927.69230916;4401.53846189;7.69229873;-0.00000896;4630.12820597;6046.66667049;4241.79487180;4236.79487180;4569.61538531;4070.76923043;4208.33333327;4369.74359003
4666.92307783;4630.76923161;4989.87179647;4435.38461581;4798.07692426;3974.99999945;229.99999153;-0.00000896;4825.89743715;6436.15385081;4241.79487180;4237.94871795;3649.23076798;4044.61538420;4209.10256404;4664.74359065
5291.53846377;4403.58974394;5349.74359211;4269.48717956;4962.56410410;3649.74358850;7.69229873;-0.00000896;4759.48718060;6110.89743986;4241.79487180;4208.97435891;3676.79487062;4070.89743555;4235.51282052;5288.20513043
5383.84615628;4301.79487194;4893.58974498;4237.82051282;4733.71794976;3612.69230638;229.99999153;-0.00000896;4562.30769301;5389.74359218;4241.79487180;4208.84615378;5973.97436266;4072.56410222;4236.66666667;5386.66666910
5416.28205379;4071.53846119;4765.00000112;4266.92307700;4891.66666806;3155.12820284;7.69229873;-0.00000896;4533.71794935;5482.94872059;4241.79487180;4208.46153840;5126.41025829;4072.94871761;4238.71794872;5419.48718199
5517.17948989;3581.41025502;5816.02564436;4234.10256411;4799.48718067;3155.38461310;229.99999153;-0.00000896;4497.17948774;5317.94872025;4241.79487180;4237.94871795;4501.79487235;4073.33333299;4241.92307693;5517.94872066
4832.05128331;3712.43589633;5055.12820687;4270.25641033;4403.97435933;2269.35897019;7.69229873;-0.00000896;5684.10256716;1679.74358433;4241.79487180;4207.94871788;5322.82051512;4076.53846119;4240.38461539;4828.71794997
4402.43589779;3939.10256348;5088.58974540;4266.92307700;4109.87179460;2921.15384338;229.99999153;-0.00000896;3256.92307484;7023.71795463;4241.79487180;4235.89743590;5849.23077264;4076.53846119;4238.97435898;4402.05128240
5224.87179696;3776.53846057;2402.05127816;4008.58974311;3481.53845994;3124.35897200;7.69229873;-0.00000896;4365.76923105;6631.02564610;4241.79487180;4234.61538462;3255.25640818;4074.10256376;4240.38461539;5222.30769440
5613.71795164;3448.46153680;5843.71795213;3716.79487069;5223.46154055;3482.30769071;229.99999153;-0.00000896;4372.30769259;5914.10256765;4241.79487180;4240.00000000;6536.66667153;4102.69230742;4241.53846154;5615.89743882
6007.56410632;3054.87179237;5485.00000264;3315.64102370;5160.12820708;3643.20512696;7.69229873;-0.00000896;4731.02564207;5258.58974575;4241.79487180;4235.25641026;4077.05128171;4077.82051248;4240.76923077;6009.35897812
5421.28205379;3978.07692252;5323.20513050;3516.53846001;4828.07692433;2108.46153395;229.99999153;-0.00000896;5123.46154034;3616.92307561;4241.79487180;4236.92307693;5091.02564284;4077.43589709;4267.94871802;5418.71795122
5057.17948892;4467.43589793;4796.66666785;4005.64102516;6440.51282517;1712.17948183;7.69229873;-0.00000896;4628.84615468;6501.41026121;4241.79487180;4239.35897436;6175.89744000;4103.58974332;4268.46153853;5058.20512995
5448.46154104;4235.76923077;2691.79486853;4139.48717928;6045.12820895;2796.92307387;229.99999153;-0.00000896;5026.53846321;7188.97436523;4241.41025641;4208.07692301;7192.17949344;4104.61538434;4269.48717956;5452.17948975
5682.30769537;4169.10256397;2664.10256077;4141.15384595;6272.17949149;3089.35897193;7.69229873;-0.00000896;5187.94871997;6797.69231312;4266.66666674;4234.87179488;3485.89743430;4106.79487152;4270.12820520;5681.92307998
5615.89743882;4239.35897436;2271.15384199;4172.82051269;5389.87179731;3351.41025454;229.99999153;-0.00000896;4728.33333438;6959.87180064;4241.28205129;4233.97435898;2531.15384254;4108.33333306;4272.43589751;5616.28205420
5549.48718227;4303.97435912;2363.46153450;4107.43589716;5253.20513036;3253.33333125;7.69229873;-0.00000896;4635.00000084;6932.69231339;4240.76923077;4208.97435891;2527.82050921;4137.56410236;4272.94871802;5550.64102842
5549.87179766;4209.10256404;2501.79486812;4107.82051255;5284.10256633;3122.05127969;229.99999153;-0.00000896;5190.25641228;6900.12821076;4237.17948718;4234.74358975;6302.43590182;4136.92307672;4274.48717956;5550.64102842
5481.41025905;4138.33333313;2463.97435523;4136.15384595;4956.41025794;3122.69230533;7.69229873;-0.00000896;4761.15384727;6766.28205664;4238.46153847;4208.97435891;2691.92307366;4138.97435877;4300.25641040;5485.00000264
5450.00000257;3974.35897381;2173.07691870;4139.10256390;5024.48718116;3351.15384428;229.99999153;-0.00000896;5485.00000264;6603.97436398;4237.82051282;4234.74358975;2823.97435599;4141.41025621;4300.12820527;5452.17948975
5519.48718220;3744.61538358;1906.41025148;4471.28205177;5088.20513002;3220.38461323;7.69229873;-0.00000896;4596.53846231;6533.84615871;4238.20512821;4235.89743590;3448.07692141;4143.07692287;4272.82051289;5518.20513092
5549.87179766;3648.46153721;3255.25640818;4466.53846203;5415.76923327;3118.71794636;229.99999153;-0.00000896;4465.76923126;5551.79487458;4237.05128206;4237.56410257;3120.38461303;4143.46153826;4301.53846168;5551.02564381
5485.12820777;3780.51281954;2397.56409868;4338.46153867;5483.84615649;3513.33333181;4.99999104;-0.00000896;4234.23076923;5454.23077181;4238.07692308;4237.56410257;2497.82050914;4172.17948704;4300.51282066;5485.25641290
5323.58974589;3975.64102509;1938.97435411;4142.05128185;5843.07692649;3415.76922904;0.51281155;-0.00000896;4432.94871837;5652.82051581;4235.25641026;4235.89743590;3615.12820381;4171.15384602;4273.33333341;5320.89743819
5291.79487402;4009.61538413;4039.48717907;4070.89743555;5816.92308026;2823.46153548;-0.00000896;-0.00000896;5092.56410437;5913.20513175;4236.41025641;4240.51282052;3052.82051032;4175.51282038;4300.12820527;5288.07692530
5320.89743819;3813.97435807;7294.23077570;4271.41025648;5850.00000341;2567.94871441;229.99999153;-0.00000896;4365.89743618;5810.51282385;4303.07692322;4239.61538462;1970.12820034;4176.28205115;4274.61538469;5321.02564332
5192.43589945;3682.94871677;6338.97436343;4333.07692329;5979.10256779;2895.12820228;229.99999153;-0.00000896;3775.64102467;5351.53846390;4174.10256397;4267.17948725;2665.12820180;4202.17948711;4299.48717963;5189.87179689
5157.30769426;3713.71794761;1383.46153242;4303.46153860;6531.41026128;3156.15384386;229.99999153;-0.00000896;4106.28205101;5356.02564339;4600.89743667;4240.38461539;7423.84616059;4202.30769224;4274.61538469;5156.92307887
5122.56410444;3840.76922994;5613.46154138;4332.30769252;5683.97436204;2726.28204809;229.99999153;-0.00000896;4269.74358982;5518.46154118;1286.28204503;4237.43589744;2429.61538080;4205.25641019;4273.84615392;5124.23077111
4962.17948871;3909.35897367;5680.76923383;4273.07692315;7419.74359649;2232.69230346;-0.00000896;-0.00000896;3942.05128143;5580.89743875;1679.99999458;4268.33333341;2596.79486832;4206.02564096;4273.07692315;4960.00000153
5350.12820749;3315.51281857;4729.61538566;4402.43589779;7425.38462213;198.97435043;-0.00000896;-0.00000896;2497.69230401;6663.84615899;2401.41025252;4269.74358982;3055.64102314;4208.20512814;4271.66666674;5353.97436134
5482.94872059;2862.82050991;3185.64102342;4403.71794907;7813.84616142;3811.79487090;-0.00000896;-0.00000896;4304.10256425;4536.28205191;2401.66666278;4268.07692315;6933.07692878;4237.69230770;4270.64102571;5485.25641290
5224.10256619;3479.48717789;5945.64102926;4103.20512793;7850.25641790;3257.05127997;-0.00000896;-0.00000896;3547.82051137;4697.82051380;2366.53845758;4270.00000007;3944.10256348;4235.64102564;4267.17948725;5222.43589952
5187.17948920;3712.82051171;7910.25641804;4070.38461504;7553.97436600;2926.41025363;-0.00000896;-0.00000896;3158.33333104;5224.87179696;3683.58974241;4270.51282059;3251.15384407;4235.76923077;4267.30769238;5189.61538663
5125.64102752;3715.25640915;5551.53846432;4102.69230742;1352.82050671;2954.23076652;-0.00000896;-0.00000896;3647.69230645;5484.87179752;6928.33333904;4271.41025648;-0.00000896;4239.35897436;4241.79487180;5123.97436085
5027.82051449;3714.87179376;791.28204399;4202.94871788;727.17947975;2594.23076576;-0.00000896;-0.00000896;4108.71794844;5353.07692544;7746.28205872;4272.82051289;4299.48717963;4240.89743590;4240.64102564;5025.64102731
4831.28205254;3749.61538358;5876.15384963;4272.17948725;527.43588959;2330.25640623;-0.00000896;-0.00000896;3713.71794761;4733.84615489;8012.43590543;4271.02564110;5352.82051519;4240.12820513;4241.41025641;4828.71794997
4732.56410361;3842.30769148;3874.74358898;4368.71794900;724.99999257;2630.64102224;-0.00000896;-0.00000896;3512.43589591;4861.15384748;7847.94872560;4273.33333341;1549.35896866;4241.41025641;4238.97435898;4730.38461643
4697.94871893;3878.07692232;3976.53846099;4496.92307748;727.82050539;2567.82050928;-0.00000896;-0.00000896;3450.51281885;5055.38461713;7779.10257161;4273.07692315;992.56409569;4241.66666667;4238.58974359;4697.69230867
4633.84615468;3845.25640943;1615.25640470;4530.00000063;730.12819770;2271.15384199;-0.00000896;-0.00000896;3287.43589542;5418.58974610;8209.61539303;4274.10256418;229.87178640;4268.20512828;4237.56410257;4632.05128289
4562.30769301;3747.05128101;1580.51281489;4498.33333389;3119.61538226;2433.84615003;-0.00000896;-0.00000896;3383.07692127;5355.00000237;3976.15384560;4273.20512828;2233.71794448;4269.61538469;4235.25641026;4566.41025711
4567.30769301;3677.94871677;727.17947975;4438.71794914;4826.92307818;2171.02563665;-0.00000896;-0.00000896;3026.02563846;5094.23077104;1511.66666090;4301.92307707;657.17947961;4270.51282059;4235.25641026;4566.28205198
4726.53846258;3645.64102439;1773.46153325;4299.74358989;4039.74358933;2232.82050859;-0.00000896;-0.00000896;3154.23076694;5387.17948962;466.28204329;4271.02564110;3349.23076736;4270.12820520;4233.97435898;4730.25641130
4890.76923216;3545.25640880;7291.41026288;4207.17948711;4765.38461650;2534.74358613;-0.00000896;-0.00000896;3216.92307477;4798.33333452;630.51281287;4299.61538476;8375.89744466;4270.00000007;4208.07692301;4894.35897575
5088.20513002;3546.41025495;8011.28205928;4202.43589737;5776.92308019;2595.25640679;-0.00000896;-0.00000896;2992.17948454;4465.38461587;727.17947975;4273.46153853;8239.74359822;4273.58974366;4205.89743583;5091.28205309
5193.71795074;3614.87179356;8176.15385450;4203.97435891;6309.35897874;2829.87179189;-0.00000896;-0.00000896;3119.61538226;4471.66666716;631.41024877;4301.41025655;4529.35897499;4272.56410264;4205.12820506;5189.74359176
5191.15384817;3743.58974255;4924.23077069;4201.02564096;2567.30768877;2789.99999695;-0.00000896;-0.00000896;3122.69230533;4563.84615454;264.10255570;4302.05128219;296.15383782;4270.89743597;4202.69230763;5189.74359176
5157.17948913;3812.94871705;462.05127406;4202.17948711;594.87178716;2598.33332986;-0.00000896;-0.00000896;3256.79486971;4305.89743604;5551.53846432;4302.56410271;592.30768460;4300.00000014;4202.30769224;5156.92307887
5028.07692475;4008.58974311;426.66665861;4172.17948704;629.99999236;2364.61538066;-0.00000896;-0.00000896;3318.71794678;4371.02564131;8011.02564902;4302.30769245;757.56409520;4273.71794879;4201.41025634;5025.51282218
4963.20512974;4107.05128178;531.15383831;4237.05128206;787.82050553;2105.25640574;-0.00000896;-0.00000896;3223.46153631;4566.92307762;8078.71795685;4300.89743604;792.17947989;4272.43589751;4173.33333320;4960.00000153
4893.97436037;4138.33333313;4304.10256425;4272.05128212;790.51281322;2167.30768793;-0.00000896;-0.00000896;3152.94871566;4169.23076910;7752.43590487;4302.82051296;792.05127476;4274.61538469;4174.87179474;4894.35897575
4793.07692426;4204.99999993;6047.05128588;4301.92307707;791.53845425;2205.76922646;-0.00000896;-0.00000896;3025.89743333;4238.07692308;7751.15385359;4303.58974373;791.53845425;4272.56410264;4174.10256397;4795.89743708
4663.20512911;4301.02564117;1940.38461052;4304.74358989;791.28204399;2238.58973935;-0.00000896;-0.00000896;2928.58974081;4464.74359023;7751.41026385;4302.43589758;791.28204399;4299.74358989;4174.48717935;4664.61538552
4595.38461615;4367.82051310;4206.92307686;4304.74358989;791.66665937;2399.74358586;229.99999153;-0.00000896;2888.20512536;4332.69230790;7751.41026385;4300.89743604;791.53845425;4299.87179501;4201.02564096;4598.97435974
4499.87179543;4466.02564152;3186.15384393;4304.87179501;791.41024912;2467.56409882;-0.00000896;-0.00000896;2862.43589452;4398.33333368;7751.41026385;4301.28205142;791.53845425;4300.51282066;4174.35897422;4500.51282107
4471.41025690;4569.74359044;1779.10255889;4302.94871809;791.41024912;2370.25640630;-0.00000896;-0.00000896;2828.07692009;4562.17948788;7751.41026385;4301.02564117;791.66665937;4302.82051296;4175.25641012;4467.69230818
4467.05128254;4567.17948788;6341.15385060;4239.61538462;791.41024912;2330.76922674;70.25640144;-0.00000896;2891.02563818;4601.28205205;7751.41026385;4273.84615392;791.66665937;4300.38461553;4202.56410250;4467.69230818
4464.23076972;4530.51282114;7912.30770009;4173.97435884;791.41024912;2301.15384206;229.99999153;-0.00000896;2961.66666396;4565.76923147;7751.41026385;4274.23076930;791.66665937;4273.71794879;4175.76923063;4467.56410305
4402.05128240;4500.76923133;7850.00000765;4237.05128206;791.41024912;2364.10256015;229.99999153;-0.00000896;2827.43589445;4596.41025718;7751.41026385;4300.89743604;791.66665937;4301.66666681;4176.15384602;4402.05128240
4337.69230790;4464.87179536;7782.94872546;4303.97435912;791.41024912;2364.74358579;229.99999153;-0.00000896;2861.28204837;4664.61538552;7751.41026385;4301.66666681;757.94871059;4300.25641040;4201.41025634;4336.41025662
4307.56410271;4435.89743632;7779.23077674;4270.51282059;791.41024912;2234.99999577;229.99999153;-0.00000896;3122.17948482;4627.69230853;7751.41026385;4300.38461553;886.15383907;4301.28205142;4201.53846147;4303.58974373
4238.07692308;4373.07692336;7877.82052054;4266.66666674;791.41024912;2205.89743159;229.99999153;-0.00000896;3090.12820270;4761.02564214;7751.41026385;4274.35897443;694.35896686;4299.74358989;4201.92307686;4237.94871795
4172.56410243;4273.33333341;8012.94872594;4240.12820513;727.94871052;2235.12820089;229.99999153;-0.00000896;3157.43589515;4863.07692440;7751.41026385;4273.07692315;1741.92307165;4300.12820527;4175.64102551;4172.30769217
4174.10256397;4233.97435898;5910.38461893;4271.41025648;596.79486409;2433.46153464;229.99999153;-0.00000896;2594.35897089;4634.10256494;7751.41026385;4302.56410271;756.66665930;4301.53846168;4201.92307686;4172.30769217
4141.66666646;4234.48717949;7225.76923710;4272.30769238;300.25640192;2301.02563693;229.99999153;-0.00000896;2861.15384324;4696.66666764;7751.41026385;4300.12820527;2465.76922702;4302.43589758;4201.79487173;4139.48717928
4174.87179474;4205.38461532;2075.64102106;4365.12820541;5121.92307880;2298.20512411;229.99999153;-0.00000896;2858.33333042;4566.66666737;7751.41026385;4274.74358982;1938.58973873;4272.82051289;4202.30769224;4172.43589730
4168.58974345;4207.94871788;923.71794170;4372.17948746;8079.74359788;2434.61538080;229.99999153;-0.00000896;2960.12820242;4599.87179564;7751.41026385;4274.61538469;3023.71794615;4304.23076937;4203.07692301;4172.43589730
4109.23076896;4205.38461532;98.84614509;4369.48717977;8047.69231576;2566.28204774;229.99999153;-0.00000896;2989.87179224;4601.28205205;7751.41026385;4299.48717963;6012.69231145;4304.48717963;4204.99999993;4106.79487152
4042.43589702;4304.35897450;3614.10256279;4202.17948711;7778.46154597;2535.12820152;229.99999153;-0.00000896;2957.05127935;4759.23077035;7751.41026385;4299.87179501;6662.82051797;4301.15384630;4202.56410250;4041.02564061
4077.69230735;4273.46153853;466.41024842;4072.56410222;7811.66667424;2400.25640637;229.99999153;-0.00000896;2566.66666313;4897.43589883;7751.41026385;4274.48717956;7819.35898194;4301.15384630;4176.15384602;4073.71794837
4203.20512814;4207.43589737;987.82050595;3971.41025586;7981.79487972;2436.15384234;229.99999153;-0.00000896;2791.53845848;4794.23077042;7751.41026385;4301.28205142;7515.89744285;4301.66666681;4202.69230763;4204.87179481
4236.53846154;4201.79487173;1285.64101939;3905.76923008;8205.25641867;2368.71794476;229.99999153;-0.00000896;3056.79486930;4761.66666778;7751.41026385;4274.74358982;5715.89743903;4301.15384630;4202.82051275;4237.56410257
4267.05128212;4169.10256397;6338.71795317;3939.48717887;3846.41025558;2298.07691898;229.99999153;-0.00000896;3088.20512578;4726.53846258;7751.41026385;4274.74358982;7228.46154479;4300.51282066;4202.56410250;4270.51282059
4269.74358982;4138.58974339;5062.43589918;4042.17948677;332.56409430;2304.10256001;229.99999153;-0.00000896;3057.30768981;4668.46153937;7751.41026385;4300.76923091;6866.28205684;4302.43589758;4202.94871788;4270.51282059
4304.23076937;4136.15384595;4004.23076875;4169.99999986;299.23076090;2335.38461136;229.99999153;-0.00000896;3052.94871545;4660.76923168;7751.41026385;4299.87179501;7686.15385345;4274.61538469;4202.30769224;4303.46153860
4334.61538483;4110.51282024;5651.41025940;4209.10256404;760.51281315;2397.94871406;229.99999153;-0.00000896;3053.58974109;4601.02564179;7751.41026385;4304.48717963;6304.87179925;4300.38461553;4202.17948711;4336.41025662
4333.84615406;4109.99999973;2169.87179050;4233.84615385;1154.74358322;2464.35897061;229.99999153;-0.00000896;3059.35897186;4563.46153916;7751.41026385;4302.05128219;6926.79487750;4299.87179501;4201.92307686;4336.41025662
4305.51282066;4137.43589723;3383.71794692;4208.20512814;7616.66667383;2434.23076541;229.99999153;-0.00000896;3025.89743333;4563.46153916;7751.41026385;4302.30769245;5810.76923411;4300.38461553;4201.41025634;4303.58974373
4302.56410271;4140.51282031;2468.71794497;4208.20512814;7023.58974950;2430.64102182;229.99999153;-0.00000896;2990.51281788;4530.51282114;7751.41026385;4300.25641040;4274.10256418;4273.33333341;4202.69230763;4303.58974373
4301.41025655;4142.94871774;4139.10256390;4204.48717942;7223.33333966;2432.56409875;229.99999153;-0.00000896;3054.61538212;4499.74359030;7751.41026385;4299.61538476;3744.74358871;4302.17948732;4201.79487173;4303.58974373
4270.76923084;4168.97435884;2830.38461240;4203.58974352;6336.53846599;2401.15384227;229.99999153;-0.00000896;3119.23076687;4496.66666723;7751.41026385;4274.35897443;3938.58974297;4299.87179501;4202.30769224;4270.76923084
4267.43589751;4143.46153826;3514.48717796;4203.20512814;6177.69231180;2402.69230380;229.99999153;-0.00000896;3152.05127976;4438.84615427;7751.41026385;4300.89743604;3584.35897297;4299.74358989;4176.15384602;4270.76923084
4235.76923077;4142.43589723;2764.35897124;4205.64102558;5979.10256779;2428.84615003;229.99999153;-0.00000896;3157.05127976;4430.89743632;7751.41026385;4301.53846168;3151.66666438;4300.25641040;4201.02564096;4237.94871795
4203.46153840;4143.33333313;2829.87179189;4208.71794865;5324.61538691;2430.89743208;229.99999153;-0.00000896;3156.92307463;4435.12820555;7751.41026385;4301.53846168;2924.48717671;4300.64102578;4201.02564096;4205.12820506
4170.38461525;4168.20512807;2789.87179182;4238.84615385;5453.84615642;2430.89743208;229.99999153;-0.00000896;3123.46153610;4431.92307734;7751.41026385;4299.87179501;3052.69230519;4300.76923091;4202.94871788;4172.30769217
4140.12820492;4168.97435884;2926.02563825;4238.71794872;5189.23077125;2432.43589362;229.99999153;-0.00000896;3056.15384366;4467.30769280;7751.41026385;4299.87179501;3250.64102356;4300.12820527;4201.15384609;4139.48717928
4137.05128185;4170.38461525;2957.69230499;4237.56410257;5948.07692669;2431.79486798;229.99999153;-0.00000896;2994.23076659;4470.00000049;7751.41026385;4274.74358982;3086.66666424;4300.25641040;4202.05128199;4139.48717928
4137.69230749;4171.41025628;2796.66666361;4234.74358975;6013.97436273;2403.84614996;229.99999153;-0.00000896;2961.79486909;4499.10256466;7751.41026385;4302.17948732;3256.28204920;4300.25641040;4201.28205122;4139.48717928
4141.02564082;4173.33333320;2627.17948378;4207.82051275;5973.46154215;2428.71794490;229.99999153;-0.00000896;2924.99999722;4534.74359037;7751.41026385;4274.48717956;2828.58974061;4301.28205142;4174.61538448;4139.48717928
4168.97435884;4201.28205122;2365.38461143;4207.30769224;5680.25641332;2403.97435509;229.99999153;-0.00000896;2924.48717671;4535.25641089;7751.41026385;4303.20512835;3184.74358752;4274.23076930;4176.28205115;4172.30769217
4171.66666653;4206.41025634;2301.53845744;4208.20512814;5287.82051505;2369.35897040;-0.00000896;-0.00000896;2955.12820242;4634.23077007;7751.41026385;4301.41025655;2957.43589473;4299.48717963;4201.28205122;4172.30769217
4175.76923063;4203.71794865;2238.07691884;4205.25641019;5587.17949003;2431.02563721;8370.89744466;-0.00000896;2956.79486909;4568.20512890;7751.41026385;4303.07692322;3019.74358718;4299.61538476;4173.84615371;4172.30769217
4202.94871788;4207.82051275;2432.05127823;4203.97435891;5188.71795074;2363.84614989;229.99999153;-0.00000896;3025.38461282;4566.92307762;7751.41026385;4300.25641040;2923.58974081;4273.58974366;4201.02564096;4205.12820506
4203.46153840;4208.07692301;2139.87179043;4205.25641019;6077.17949107;2334.10256008;8370.89744466;-0.00000896;3024.61538205;4595.38461615;7751.41026385;4300.89743604;4169.99999986;4274.61538469;4201.15384609;4205.12820506
4204.74358968;4207.82051275;2797.43589438;4236.02564103;4795.38461657;2364.87179091;-0.00000896;-0.00000896;3024.23076666;4569.35897506;7751.41026385;4302.30769245;3221.66666452;4299.74358989;4201.02564096;4205.12820506
4208.20512814;4207.17948711;2758.46153534;4240.51282052;2134.23076479;2397.17948329;-0.00000896;-0.00000896;3023.71794615;4568.46153916;7751.41026385;4299.61538476;3283.84615183;4274.61538469;4175.51282038;4205.12820506
4234.48717949;4235.12820513;3579.23076784;4239.74358975;3876.53846078;2397.94871406;-0.00000896;-0.00000896;3020.76922820;4599.61538538;7751.41026385;4299.87179501;3612.05128073;4273.71794879;4201.28205122;4237.94871795
4236.53846154;4235.00000000;3087.82051039;4237.69230770;5684.10256716;2364.48717553;-0.00000896;-0.00000896;3019.74358718;4569.23076993;7751.41026385;4306.02564117;4267.05128212;4274.48717956;4201.41025634;4237.94871795
4233.84615385;4236.28205129;3781.41025544;4238.46153847;6205.64102981;2363.20512425;-0.00000896;-0.00000896;2960.25640755;4665.76923168;7751.41026385;4302.43589758;4004.74358926;4300.76923091;4201.53846147;4237.94871795
4237.30769231;4233.97435898;3814.35897346;4241.92307693;4861.53846286;2364.23076527;-0.00000896;-0.00000896;2954.10256140;4666.02564193;7751.41026385;4274.48717956;4305.51282066;4273.71794879;4203.20512814;4237.94871795
4238.58974359;4207.30769224;4466.79487229;4239.87179488;3978.58974304;2396.41025252;-0.00000896;-0.00000896;2926.92307415;4633.58974443;7751.41026385;4300.51282066;4398.71794907;4299.74358989;4201.28205122;4237.94871795
4240.38461539;4206.53846147;4498.07692364;4240.64102564;4370.25641054;2371.15384220;-0.00000896;-0.00000896;2960.89743319;4633.71794956;7751.41026385;4302.69230784;4564.87179557;4299.61538476;4175.51282038;4237.94871795
4239.35897436;4204.61538455;3810.38461449;4272.17948725;5056.41025815;2370.25640630;-0.00000896;-0.00000896;2987.69230506;4628.07692391;7751.41026385;4303.20512835;4893.33333473;4301.53846168;4201.53846147;4237.94871795
4241.92307693;4204.10256404;3249.61538253;4302.69230784;5582.94872080;2498.58973991;-0.00000896;-0.00000896;2731.28204809;4728.84615489;7751.41026385;4301.53846168;5058.84615559;4301.41025655;4201.66666660;4237.94871795
4335.38461560;4205.38461532;2759.74358662;4269.10256418;7027.82051873;2567.94871441;-0.00000896;-0.00000896;2533.58973998;4628.33333417;7751.41026385;4302.43589758;5680.64102870;4301.15384630;4203.20512814;4336.41025662
4402.56410292;4241.15384616;2003.97435425;4141.41025621;7160.89744209;2560.51281697;-0.00000896;-0.00000896;2797.30768925;4595.51282128;7751.41026385;4303.20512835;5980.12820881;4300.76923091;4201.41025634;4401.92307727
4438.71794914;4300.38461553;1024.23076242;4137.30769210;7358.71795532;2469.23076548;-0.00000896;-0.00000896;2988.07692044;4595.64102641;7751.41026385;4301.92307707;6728.58974887;4300.89743604;4201.53846147;4434.74359016
4497.43589800;4305.00000014;2101.66666215;4171.28205115;5551.92307971;2430.38461157;-0.00000896;-0.00000896;2895.12820228;4569.10256480;7751.41026385;4273.58974366;2527.56409895;4301.15384630;4201.53846147;4500.38461594
4533.46153909;4306.53846168;3056.92307443;4207.94871788;1648.97435349;2403.20512432;-0.00000896;-0.00000896;2955.89743319;4536.41025704;7751.41026385;4273.97435905;2464.23076548;4302.05128219;4201.28205122;4533.33333396
4563.20512890;4307.05128219;2498.58973991;4208.84615378;1517.82050706;2433.07691926;-0.00000896;-0.00000896;3056.53845904;4498.07692364;7751.41026385;4301.02564117;2170.76922640;4300.51282066;4176.28205115;4566.15384685
4535.89743653;4307.17948732;2136.92307248;4208.84615378;4372.94871823;2462.56409882;-0.00000896;-0.00000896;3119.74358738;4432.69230811;7751.41026385;4300.76923091;2762.82050970;4302.17948732;4201.28205122;4533.33333396
4504.35897492;4334.48717970;1676.79486638;4234.23076923;5946.92308054;2501.15384247;-0.00000896;-0.00000896;3088.97435655;4368.07692336;7751.41026385;4300.00000014;3154.35897207;4301.15384630;4201.15384609;4500.51282107
4499.74359030;4366.28205156;2005.51281579;4206.02564096;5816.66667001;2432.30768849;-0.00000896;-0.00000896;3355.38461351;4367.30769259;7751.41026385;4299.48717963;3254.10256202;4300.89743604;4202.82051275;4500.51282107
4467.30769280;4336.92307714;2135.25640581;4307.17948732;5585.12820798;2010.12820041;-0.00000896;-0.00000896;3715.64102453;4004.23076875;7751.41026385;4302.82051296;3023.33333077;4274.61538469;4202.30769224;4467.69230818
4373.07692336;4274.74358982;1969.87179008;4633.46153930;5614.23077215;2071.41025183;-0.00000896;-0.00000896;3584.35897297;4399.23076958;7751.41026385;4274.10256418;2926.41025363;4301.41025655;4201.15384609;4369.61538490
4267.17948725;4270.38461546;2268.71794455;4632.43589827;5253.58974575;2826.92307394;-0.00000896;-0.00000896;2403.20512432;4635.12820597;7751.41026385;4273.84615392;2271.66666250;4303.33333348;4201.15384609;4271.15384623
4304.35897450;4301.02564117;1548.58973790;4433.84615427;6302.82051720;2501.41025273;-0.00000896;-0.00000896;2631.15384275;4366.53846182;7751.41026385;4299.87179501;6111.41026037;4303.07692322;4201.41025634;4303.71794886
4301.66666681;4368.58974387;462.82050483;4235.12820513;7947.56411042;2659.48717616;-0.00000896;-0.00000896;2928.84615107;4469.87179536;7751.41026385;4300.76923091;8377.30770107;4303.33333348;4174.87179474;4303.58974373
4302.69230784;4398.33333368;401.15383803;3971.79487124;8144.61539289;2568.07691954;229.99999153;-0.00000896;2792.30768925;4535.12820576;7751.41026385;4273.97435905;5028.07692475;4302.05128219;4201.66666660;4303.33333348
4337.05128226;4401.53846189;3418.33333160;3712.69230658;6040.12820895;2432.69230387;229.99999153;-0.00000896;2730.51281732;4498.07692364;7751.41026385;4300.89743604;2528.33332972;4304.61538476;4202.56410250;4335.89743611
4239.74358975;4435.64102606;7844.23077688;3452.30769064;3845.25640943;2136.53845710;229.99999153;-0.00000896;3844.99999917;3778.07692211;7751.41026385;4300.00000014;269.99999160;4274.61538469;4201.92307686;4237.17948718
3943.97435835;4436.15384657;8243.46154694;3612.43589612;232.30768383;2300.38461129;229.99999153;-0.00000896;3517.82051130;4565.51282121;7751.41026385;4300.38461553;860.89742874;4272.43589751;4201.79487173;3941.92307630
3617.43589612;4828.97436023;8179.74359809;3972.69230714;631.28204364;2396.92307304;-0.00000896;-0.00000896;4332.56410278;4759.74359086;7751.41026385;4302.30769245;755.89742854;4273.07692315;4204.23076917;3614.10256279
4272.82051289;4530.00000063;4367.05128233;4205.25641019;762.17947982;2238.07691884;34.48717060;-0.00000896;199.74358120;5976.66667035;7751.41026385;4299.48717963;791.02563373;4273.97435905;4204.87179481;4270.76923084
5219.10256619;4238.84615385;827.69230047;4041.92307651;790.89742861;2797.56409951;229.99999153;-0.00000896;722.43589000;4693.46153944;7751.41026385;4300.64102578;790.51281322;4299.48717963;4204.48717942;5222.30769440
5351.28205365;4502.43589800;101.15383740;3845.12820430;791.66665937;2562.94871441;34.48717060;-0.00000896;3283.71794671;4832.69230895;7751.41026385;4274.61538469;790.51281322;4300.51282066;4204.23076917;5353.46154083
5258.71795088;4365.25641054;4600.00000077;3975.25640970;791.41024912;2461.79486805;229.99999153;-0.00000896;3253.33333125;4732.30769335;7751.41026385;4301.66666681;790.38460809;4272.30769238;4175.64102551;5255.12820729
5188.46154048;4372.56410285;463.20512022;4004.74358926;791.66665937;2562.43589390;34.48717060;-0.00000896;3250.76922869;4632.82051366;7751.41026385;4301.53846168;790.38460809;4299.61538476;4203.33333327;5189.48718151
5094.35897617;4401.53846189;6662.94872309;4072.43589709;791.41024912;2600.64102217;229.99999153;-0.00000896;3349.35897249;4468.46153895;7751.41026385;4273.97435905;790.38460809;4273.58974366;4203.58974352;5091.15384796
5056.15384789;4497.69230825;6765.00000535;4203.07692301;791.15383886;2338.33332931;34.48717060;-0.00000896;3617.17948586;4825.89743715;7751.41026385;4302.43589758;790.38460809;4274.74358982;4202.94871788;5058.46154020
5122.17948906;4499.35897492;3417.17948545;4332.56410278;791.28204399;1711.66666132;229.99999153;-0.00000896;3712.56410146;4929.10256557;7751.41026385;4272.43589751;790.38460809;4274.48717956;4201.15384609;5124.23077111
5185.64102766;4337.69230790;2629.10256070;4371.15384644;791.28204399;1911.41025148;34.48717060;-0.00000896;3650.64102439;4529.61538524;7751.41026385;4300.38461553;790.38460809;4300.00000014;4202.17948711;5189.87179689
5123.84615573;4369.23076951;8377.30770107;4464.35897485;791.28204399;2398.46153457;229.99999153;-0.00000896;3912.94871726;4201.66666660;7751.41026385;4299.61538476;790.38460809;4300.76923091;4203.71794865;5124.35897624
5057.94871969;4465.25641075;2008.71794400;4563.97435967;791.28204399;2173.97435460;34.48717060;-0.00000896;3481.41025482;4366.41025669;7751.41026385;4300.25641040;790.38460809;4302.43589758;4201.53846147;5058.71795046
4993.84615545;4365.89743618;5977.69231138;4565.64102634;791.28204399;1908.84614892;229.99999153;-0.00000896;3415.76922904;4268.07692315;7751.41026385;4301.66666681;790.38460809;4303.07692322;4202.69230763;4993.07692468
4858.84615517;4303.58974373;5810.12820847;4570.00000070;791.28204399;2103.84614933;34.48717060;-0.00000896;3682.43589626;4040.51282010;7751.41026385;4274.48717956;790.38460809;4304.10256425;4175.89743576;4861.79487312
4631.53846238;4338.58974380;8176.79488014;4666.92307783;791.28204399;2272.69230353;229.99999153;-0.00000896;3123.71794636;4042.43589702;7751.41026385;4274.74358982;790.38460809;4305.51282066;4175.51282038;4632.17948802
4433.33333375;4367.69230797;7945.89744375;4696.02564200;791.28204399;2628.46153506;34.48717060;-0.00000896;2858.20512529;4271.79487187;7751.41026385;4272.30769238;790.38460809;4332.94871816;4174.99999986;4435.25641068
4372.56410285;4339.48717970;7811.79487937;4633.07692391;791.28204399;2857.43589452;229.99999153;-0.00000896;2527.94871434;4337.94871816;7751.41026385;4271.53846161;756.41024905;4306.53846168;4176.15384602;4369.61538490
4400.12820548;4333.33333355;7712.94872532;4503.71794928;791.28204399;2857.69230478;34.48717060;-0.00000896;2594.35897089;4300.76923091;7751.41026385;4272.94871802;856.92306977;4332.30769252;4202.17948711;4402.30769266
4469.61538511;4368.84615413;7945.64103350;4403.71794907;791.28204399;2823.33333035;229.99999153;-0.00000896;2955.51281781;4109.48717921;7751.41026385;4273.46153853;496.02563311;4332.94871816;4201.02564096;4467.82051331
4502.56410312;4500.38461594;7090.64103169;4438.84615427;791.28204399;2891.15384331;34.48717060;-0.00000896;3056.02563853;4174.74358961;7751.41026385;4269.61538469;1445.76922487;4335.12820534;4176.02564089;4500.64102620
4564.61538531;4565.12820583;4926.15384762;4534.10256473;791.28204399;2663.07691975;229.99999153;-0.00000896;2499.48717581;4272.82051289;7751.41026385;4271.28205136;3649.48717824;4333.97435919;4176.02564089;4566.41025711
4731.79487284;4564.10256480;5386.79487423;4432.30769273;791.28204399;2435.12820131;34.48717060;-0.00000896;2494.87179119;4367.05128233;7751.41026385;4270.25641033;4956.02564256;4307.43589758;4175.89743576;4730.38461643
4898.20512960;4468.33333382;7812.05128963;4267.82051289;791.28204399;2168.07691870;229.99999153;-0.00000896;2660.64102231;4401.15384651;7751.41026385;4267.82051289;1512.17948142;4335.00000021;4175.64102551;4894.35897575
5055.38461713;4406.02564138;8043.33334140;4142.94871774;791.28204399;2102.43589292;34.48717060;-0.00000896;2794.99999695;4207.94871788;7751.41026385;4268.46153853;494.74358183;4335.00000021;4175.64102551;5058.33333507
5026.66666834;4401.92307727;7752.82052026;4170.51282038;791.28204399;2107.94871344;229.99999153;-0.00000896;2859.23076632;4075.38461504;7751.41026385;4269.87179495;691.28204378;4336.53846175;4174.61538448;5025.51282218
4831.15384741;4402.69230804;7751.92308436;4270.25641033;791.28204399;2104.35896985;34.48717060;-0.00000896;2632.94871455;4173.97435884;7751.41026385;4270.89743597;762.69230033;4335.64102585;4176.15384602;4828.71794997
4667.17948809;4339.10256431;7751.79487923;4203.20512814;791.28204399;2465.51281676;229.99999153;-0.00000896;2337.05127802;4301.92307707;7751.41026385;4267.43589751;824.87178765;4337.05128226;4174.48717935;4664.61538552
4602.43589820;4174.87179474;7751.79487923;4238.58974359;791.28204399;2337.30768828;34.48717060;-0.00000896;2697.17948392;4137.43589723;7751.41026385;4268.33333341;661.41024884;4335.38461560;4173.71794858;4598.97435974
4371.02564131;4169.61538448;7751.92308436;4234.61538462;791.15383886;2435.25640644;229.99999153;-0.00000896;2366.66666271;4233.84615385;7751.41026385;4268.46153853;1878.33332833;4336.02564124;4175.25641012;4369.23076951
4339.87179508;4105.51282024;7815.76923835;4077.82051248;759.35896700;2531.02563742;0.38460642;-0.00000896;2434.48717567;4169.10256397;7812.82052040;4268.46153853;563.58973581;4337.17948739;4172.82051269;4336.28205149
4306.79487194;4103.46153819;7942.69231555;3972.94871740;661.79486422;2560.12820159;-0.00000896;-0.00000896;2400.89743201;4169.48717935;7714.10257147;4268.46153853;1680.51281510;4338.97435919;4170.76923063;4303.33333348
4268.84615392;4103.20512793;8306.79488042;3840.64102481;794.35896707;2692.43589417;7.17947822;-0.00000896;2499.35897068;4105.76923050;8377.30770107;4271.28205136;2169.99999563;4335.38461560;4172.82051269;4270.38461546
4204.61538455;4137.43589723;3253.58974151;3715.64102453;2463.58973984;2828.58974061;229.99999153;-0.00000896;2860.12820221;4169.87179474;3905.89743521;4269.74358982;3351.79486992;4335.76923098;4172.17948704;4204.61538455
4135.64102544;4205.89743583;722.82050539;3679.35897318;3875.12820437;2494.48717581;229.99999153;-0.00000896;3023.20512564;4011.41025593;5810.89743924;4272.05128212;2699.10256084;4333.46153867;4172.30769217;4138.97435877
4072.94871761;4235.89743590;401.28204316;3841.79487096;2304.74358565;2396.41025252;229.99999153;-0.00000896;3157.43589515;4141.28205108;5551.79487458;4272.05128212;693.33332583;4332.56410278;4172.69230756;4073.46153812
4109.61538434;4175.64102551;793.07691578;4136.02564082;558.97435120;2370.12820117;229.99999153;-0.00000896;2958.20512550;4304.61538476;8109.10257231;4272.56410264;1517.43589167;4334.87179508;4172.17948704;4106.53846126
4204.99999993;4237.69230770;792.05127476;4268.20512828;659.61537705;2628.07691968;-0.00000896;-0.00000896;2698.07691981;4009.74358926;1283.71794247;4300.00000014;2303.71794462;4332.94871816;4172.82051269;4205.12820506
4205.38461532;4271.41025648;791.02563373;4103.58974332;3483.07692148;2560.76922723;-0.00000896;-0.00000896;2928.84615107;4139.99999980;3811.15384525;4271.92307700;2726.92307373;4332.94871816;4173.33333320;4204.99999993
4240.64102564;4236.41025641;790.76922348;4071.79487145;8074.74359788;2403.33332945;-0.00000896;-0.00000896;2528.97435536;4109.48717921;2896.02563818;4271.15384623;4370.25641054;4332.56410278;4172.94871781;4237.82051282
4274.61538469;4238.33333334;791.02563373;4006.02564054;7848.07693072;2531.15384254;-0.00000896;-0.00000896;3122.05127969;4173.33333320;664.23076166;4300.00000014;4044.35897395;4306.92307707;4172.05128192;4270.51282059
4332.69230790;4239.74358975;790.89742861;4043.97435856;7746.15385359;2434.48717567;-0.00000896;-0.00000896;2924.87179210;4169.10256397;266.79486339;4299.74358989;4137.82051262;4304.48717963;4172.94871781;4336.15384637
4367.43589772;4267.56410264;791.02563373;4073.46153812;5678.46154152;2434.23076541;-0.00000896;-0.00000896;2825.38461240;4137.17948697;663.33332576;4273.33333341;4403.46153881;4306.66666681;4173.20512807;4369.10256438
4431.41025683;4271.53846161;790.89742861;4072.30769196;5191.02564304;2401.66666278;-0.00000896;-0.00000896;2988.84615121;4110.38461511;3419.48717775;4274.10256418;3060.25640776;4305.51282066;4172.94871781;4434.74359016
4437.56410298;4269.10256418;657.69230012;4074.61538427;5323.46154076;2302.69230360;-0.00000896;-0.00000896;3152.56410027;4109.10256383;7751.53846898;4273.33333341;3712.43589633;4305.64102578;4174.23076910;4434.74359016
4432.05128247;4237.94871795;794.61537732;4076.66666632;5321.15384845;2300.76922667;-0.00000896;-0.00000896;3217.30769016;4108.07692280;7056.41026239;4274.35897443;3679.61538344;4305.12820527;4172.94871781;4434.74359016
4398.71794907;4233.97435898;922.94871093;4106.66666639;5686.02564409;2330.25640623;-0.00000896;-0.00000896;3224.35897221;4106.66666639;2336.53845751;4274.61538469;3841.66666584;4306.41025655;4172.69230756;4401.92307727
4367.43589772;4207.56410250;4141.28205108;4110.38461511;5685.25641332;2303.97435488;-0.00000896;-0.00000896;3253.84615177;4106.02564075;661.66665910;4273.58974366;3975.76923022;4305.25641040;4172.05128192;4369.10256438
4337.05128226;4206.28205122;6600.25641526;4140.76923056;5318.33333563;2303.84614975;-0.00000896;-0.00000896;3288.33333132;4077.43589709;564.35896658;4274.74358982;3682.56410139;4332.43589765;4171.92307679;4336.28205149
4306.28205142;4202.43589737;6237.69231193;4202.05128199;5254.87179703;1975.64102085;-0.00000896;-0.00000896;3942.30769169;4857.82051414;761.41024905;4273.20512828;3744.87179383;4305.25641040;4172.05128192;4303.58974373
4237.17948718;4070.89743555;5519.48718220;4400.89743625;5054.61538636;1712.17948183;-0.00000896;-0.00000896;3352.17948531;4201.53846147;758.07691572;4274.61538469;4076.28205094;4305.89743604;4171.79487166;4238.07692308
4206.02564096;3978.71794817;6170.38461949;4468.33333382;5094.87179668;2398.07691919;-0.00000896;-0.00000896;2697.30768905;4039.61538420;527.43588959;4273.20512828;3611.53846022;4305.76923091;4173.33333320;4205.38461532
4271.15384623;4006.15384567;6468.33333806;4468.58974408;6073.46154236;3022.82051025;-0.00000896;-0.00000896;2829.10256112;4598.71794949;497.56409465;4274.74358982;5089.35897617;4306.28205142;4171.02564089;4271.02564110
4169.23076910;3908.33333264;232.17947871;4890.25641165;7288.20513467;2790.89743284;-0.00000896;-0.00000896;2498.33332965;5022.30769398;3911.41025572;4272.94871802;661.53845397;4332.43589765;4171.15384602;4172.94871781
4370.25641054;4176.15384602;664.48717192;4762.56410368;8107.69231590;1713.84614850;-0.00000896;-0.00000896;3321.79486985;4336.41025662;8014.23077723;4274.61538469;3716.15384505;4307.43589758;4170.89743576;4369.74359003
4431.02564145;4239.87179488;6895.00000563;4367.56410285;7418.46154521;3517.05128053;-0.00000896;-0.00000896;2696.02563776;3972.30769176;7680.89744320;4273.58974366;4370.00000028;4334.10256431;4170.12820499;4435.00000042
4338.46153867;4238.07692308;7780.76923828;4404.87179522;6897.56410820;2434.74358593;-0.00000896;-0.00000896;3218.84615170;4007.05128157;7815.38462296;4272.94871802;5058.46154020;4333.84615406;4170.76923063;4336.53846175
4303.97435912;4173.20512807;8077.94872608;4433.84615427;526.15383831;2166.66666229;-0.00000896;-0.00000896;3349.23076736;3976.92307637;7813.84616142;4272.82051289;3317.17948524;4335.38461560;4170.12820499;4303.71794886
4239.35897436;4109.10256383;7752.05128949;4536.66666730;887.82050574;2430.76922695;-0.00000896;-0.00000896;3154.23076694;4037.05128164;8047.05129012;4299.74358989;6630.12821020;4334.10256431;4169.99999986;4238.20512821
4172.82051269;4106.53846126;7751.66667411;4602.82051359;558.46153068;2494.35897068;-0.00000896;-0.00000896;3020.76922820;3972.17948663;7947.30770016;4270.64102571;7620.38462255;4337.43589765;4170.12820499;4172.69230756
4109.99999973;4136.28205108;7751.41026385;4504.35897492;793.33332604;2300.25640616;-0.00000896;-0.00000896;2829.87179189;3971.53846099;5645.51282350;4272.56410264;8377.30770107;4334.23076944;4170.38461525;4106.92307665
4074.35897402;4076.79487145;7751.41026385;4498.71794928;791.41024912;2204.35897005;229.99999153;-0.00000896;2961.66666396;4071.28205094;231.15383768;4270.12820520;4860.25641158;4336.28205149;4170.38461525;4074.10256376
4044.99999959;3977.56410201;7751.41026385;4597.69230846;724.10255667;2363.33332938;-0.00000896;-0.00000896;2863.33333042;4009.61538413;695.38460788;4269.10256418;1873.07691808;4337.05128226;4171.92307679;4041.41025600
4071.53846119;3946.02564040;7751.41026385;4628.07692391;697.05127455;2633.71794532;-0.00000896;-0.00000896;2761.15384303;4073.71794837;692.82050532;4270.76923084;396.28204316;4337.30769252;4169.99999986;4074.23076889
4103.84615357;3873.33333257;7751.41026385;4596.66666743;268.20511980;2630.64102224;65.76922195;-0.00000896;2530.64102203;3678.71794754;792.30768502;4270.64102571;754.99999264;4337.43589765;4171.41025628;4107.05128178
4106.92307665;4038.97435856;7751.41026385;4436.15384657;5810.25641360;2659.35897103;229.99999153;-0.00000896;2337.69230367;3941.15384553;791.66665937;4240.89743590;528.33332549;4337.30769252;4169.23076910;4106.79487152
4174.10256397;4077.05128171;7751.41026385;4239.10256411;5780.89743917;2563.46153492;229.99999153;-0.00000896;2529.74358613;3908.97435828;791.28204399;4271.79487187;859.35896721;4337.94871816;4169.99999986;4172.30769217
4234.10256411;4137.43589723;7751.41026385;4143.33333313;2205.64102134;2497.94871427;229.99999153;-0.00000896;2592.82050935;3941.92307630;791.28204399;4272.05128212;2630.51281711;4337.17948739;4169.35897422;4237.82051282
4267.43589751;4139.35897415;7751.41026385;4076.66666632;558.07691530;2468.58973984;229.99999153;-0.00000896;2632.82050942;3945.64102502;791.53845425;4268.58974366;3486.92307533;4338.58974380;4168.71794858;4270.64102571
4269.61538469;4136.79487159;7751.41026385;4012.17948670;533.20512036;2527.56409895;229.99999153;-0.00000896;2760.89743277;3938.58974297;790.76922348;4266.79487187;529.61537677;4336.66666688;4168.33333320;4270.51282059
4270.51282059;4140.12820492;7751.41026385;4006.79487131;861.15383900;2565.64102210;229.99999153;-0.00000896;2795.51281746;3910.25640957;792.56409527;4269.23076930;593.07691537;4336.41025662;4168.20512807;4270.51282059
4268.58974366;4174.87179474;7751.41026385;3945.38461476;1055.38460865;2662.94871462;229.99999153;-0.00000896;2757.82050970;3940.38461476;791.66665937;4273.07692315;794.35896707;4336.53846175;4143.46153826;4270.51282059
4267.17948725;4204.99999993;7751.41026385;3843.20512738;1871.79486680;2790.76922772;229.99999153;-0.00000896;2857.69230478;3941.15384553;823.20512098;4268.33333341;789.74358245;4336.92307714;4143.46153826;4270.38461546
4272.30769238;4237.05128206;7751.41026385;3811.92307602;1121.66666007;2626.28204788;229.99999153;-0.00000896;3057.43589494;3909.87179418;789.61537732;4270.00000007;790.76922348;4335.00000021;4168.33333320;4270.38461546
4269.48717956;4239.87179488;7751.41026385;3843.07692225;891.28204420;2370.25640630;229.99999153;-0.00000896;3025.38461282;3973.58974304;791.02563373;4274.74358982;791.28204399;4335.00000021;4168.20512807;4270.38461546
4238.20512821;4208.58974352;7751.41026385;3873.46153770;820.89742867;2399.61538073;229.99999153;-0.00000896;3088.84615142;3880.38461462;792.56409527;4271.41025648;791.66665937;4333.58974380;4143.33333313;4237.56410257
4206.28205122;4235.00000000;7751.41026385;3973.58974304;756.92306956;2468.84615010;229.99999153;-0.00000896;2893.46153562;3939.99999938;789.10255681;4272.82051289;789.10255681;4333.33333355;4143.46153826;4204.87179481
4175.51282038;4205.12820506;7751.41026385;3941.92307630;789.99999271;2565.38461184;229.99999153;-0.00000896;2789.87179182;3906.41025572;853.97435182;4273.46153853;662.69230012;4332.94871816;4168.71794858;4172.05128192
4202.30769224;4235.00000000;7751.41026385;3873.46153770;790.89742861;2495.89743222;229.99999153;-0.00000896;2958.58974088;3944.61538399;788.07691578;4272.69230777;792.30768502;4306.02564117;4143.46153826;4204.74358968
4201.92307686;4206.53846147;7751.41026385;3876.92307616;791.02563373;2402.69230380;229.99999153;-0.00000896;3023.20512564;3941.28205066;792.94871066;4272.30769238;1775.89743069;4306.92307707;4169.87179474;4204.74358968
4206.28205122;4207.69230763;7751.41026385;3908.46153777;791.15383886;2335.51281649;229.99999153;-0.00000896;3059.48717699;3911.79487110;791.15383886;4272.43589751;1318.46153228;4333.58974380;4168.20512807;4204.74358968
4204.74358968;4237.94871795;7751.41026385;3942.05128143;791.28204399;2400.64102175;229.99999153;-0.00000896;2992.30768967;3940.89743528;791.41024912;4273.46153853;5879.35897784;4306.92307707;4169.74358961;4204.87179481
4204.61538455;4237.82051282;7751.41026385;3941.02564040;791.28204399;2367.69230374;229.99999153;-0.00000896;3056.02563853;3941.28205066;791.28204399;4274.23076930;3087.30768988;4307.30769245;4168.58974345;4204.87179481
4201.79487173;4237.94871795;7751.41026385;3942.43589681;791.15383886;2170.76922640;229.99999153;-0.00000896;3186.66666445;3945.89743528;791.53845425;4273.20512828;4042.30769189;4305.12820527;4171.02564089;4204.87179481
4174.99999986;4238.97435898;7751.41026385;4041.15384574;791.15383886;2104.61538010;229.99999153;-0.00000896;3218.33333118;3939.61538399;791.41024912;4274.23076930;7128.97436509;4303.84615399;4168.71794858;4172.05128192
4173.33333320;4234.10256411;7751.41026385;4108.71794844;791.15383886;2105.38461087;229.99999153;-0.00000896;3188.33333111;3911.53846085;791.41024912;4274.35897443;7523.71795567;4304.87179501;4168.71794858;4172.17948704
4171.15384602;4202.94871788;7753.71795616;4170.25641012;791.15383886;2140.12820068;229.99999153;-0.00000896;3157.82051053;3905.76923008;791.41024912;4302.30769245;7713.07693045;4305.25641040;4142.82051262;4172.17948704
4169.10256397;4173.97435884;7978.71795664;4238.46153847;791.15383886;2199.48717518;229.99999153;-0.00000896;3217.69230554;3913.46153777;760.51281315;4300.89743604;7584.87180196;4305.12820527;4168.97435884;4172.30769217
4139.23076903;4174.61538448;8143.71795699;4302.69230784;789.61537732;2238.20512397;229.99999153;-0.00000896;2992.94871531;3911.02564033;497.17947926;4299.87179501;7818.33334091;4303.84615399;4169.74358961;4139.48717928
4139.35897415;4169.74358961;5711.79487493;4274.35897443;727.30768488;2071.92307234;229.99999153;-0.00000896;3318.58974165;4038.33333292;663.07691551;4299.74358989;7483.20513509;4305.38461553;4168.71794858;4139.48717928
4103.97435870;4174.35897422;2790.38461233;4333.84615406;657.17947961;2464.74358600;229.99999153;-0.00000896;3189.74358752;3912.94871726;2762.56409944;4274.35897443;7519.35898131;4303.71794886;4169.10256397;4106.79487152
4069.87179453;4271.53846161;263.46153006;4339.61538483;795.38460809;1976.15384136;229.99999153;-0.00000896;3649.87179362;4103.33333306;8244.74359822;4300.51282066;7321.92308346;4306.28205142;4169.35897422;4073.97435863
3910.76923008;4038.33333292;854.23076208;4600.12820590;4730.00000105;1648.33332785;229.99999153;-0.00000896;3645.64102439;4169.23076910;7819.35898194;4273.84615392;7581.92308401;4305.38461553;4170.89743576;3910.12820444
3841.66666584;3978.46153791;757.30768495;4695.12820610;4404.35897471;2757.82050970;229.99999153;-0.00000896;2201.28204698;4075.25640991;7852.17949483;4300.64102578;7844.23077688;4306.53846168;4169.35897422;3844.48717866
3909.35897367;4041.66666625;790.25640296;4372.94871823;5879.61538809;3155.25640797;229.99999153;-0.00000896;2103.58973908;3976.02564047;7752.69231513;4271.28205136;7785.00000751;4306.15384630;4169.35897422;3909.87179418
4004.48717900;4137.30769210;791.41024912;4135.64102544;7946.02564888;2726.92307373;229.99999153;-0.00000896;2894.74358690;3910.12820444;7752.82052026;4300.38461553;7716.02564840;4306.79487194;4168.97435884;4008.07692259
4037.43589702;4171.66666653;791.66665937;4107.94871767;7877.94872567;2271.15384199;229.99999153;-0.00000896;2961.28204858;3909.87179418;7752.69231513;4271.53846161;7946.53846939;4332.94871816;4171.02564089;4040.89743548
4040.25640984;4174.35897422;625.38460774;4141.66666646;7880.76923849;2397.69230380;229.99999153;-0.00000896;2863.33333042;3906.53846085;7752.69231513;4301.41025655;6538.58974846;4305.51282066;4143.20512800;4040.89743548
4071.02564068;4203.07692301;793.33332604;4171.28205115;5416.15384866;2433.97435516;-0.00000896;-0.00000896;2861.15384324;3938.71794810;7784.61539212;4273.20512828;3711.92307582;4333.71794893;4169.35897422;4073.71794837
4077.82051248;4205.51282045;401.92306880;4143.33333313;5127.69230957;2401.02563714;6.15383719;-0.00000896;2922.94871517;3913.46153777;8042.30770037;4274.35897443;2830.51281753;4305.00000014;4169.61538448;4073.71794837
4172.94871781;4236.41025641;7097.30769836;4143.20512800;5750.12820833;3056.79486930;229.99999153;-0.00000896;3381.15384435;3978.58974304;8145.25641853;4274.35897443;5452.17948975;4305.00000014;4170.38461525;4172.17948704
4271.66666674;4401.53846189;7753.58975103;4009.87179439;5781.28205455;2074.35896978;6.15383719;-0.00000896;2830.64102266;4694.10256508;4335.64102585;4301.15384630;5388.71795115;4305.00000014;4169.61538448;4270.51282059
4173.20512807;4238.07692308;8077.94872608;4172.30769217;5945.76923439;2270.64102148;-0.00000896;-0.00000896;3184.61538240;4043.71794830;236.41024794;4273.58974366;5125.25641214;4304.87179501;4170.51282038;4172.17948704
4207.56410250;4202.05128199;7752.43590487;4175.64102551;6074.35897825;2233.20512397;-0.00000896;-0.00000896;3216.41025426;4006.41025593;563.33332555;4272.94871802;6468.07692781;4305.00000014;4170.51282038;4204.99999993
4209.10256404;4171.28205115;7785.76923828;4267.69230777;2170.76922640;2136.02563658;-0.00000896;-0.00000896;3222.56410041;4070.51282017;762.43589007;4273.46153853;660.76922320;4306.79487194;4169.99999986;4205.12820506
4239.35897436;4142.05128185;7684.48718679;4303.46153860;6728.97436426;2369.10256015;-0.00000896;-0.00000896;3056.92307443;4012.05128157;789.99999271;4274.10256418;5188.97436099;4306.66666681;4168.97435884;4237.94871795
4267.82051289;4173.33333320;8142.43590571;4302.56410271;7095.00000605;2532.05127844;-0.00000896;-0.00000896;2895.64102280;3978.71794817;791.53845425;4272.56410264;4070.38461504;4306.15384630;4170.51282038;4270.76923084
4305.51282066;4209.10256404;4963.07692461;4207.05128199;8011.15385415;2596.15384268;-0.00000896;-0.00000896;2859.35897144;4008.33333285;791.53845425;4273.71794879;6898.58974922;4305.25641040;4169.87179474;4303.58974373
4365.76923105;4269.23076930;7780.76923828;4171.02564089;7814.87180245;2497.82050914;-0.00000896;-0.00000896;3020.12820256;4008.33333285;791.53845425;4272.69230777;6700.25641547;4305.89743604;4169.61538448;4369.10256438
4399.74359009;4303.33333348;7516.15385311;4143.20512800;7753.46154590;2494.61538094;-0.00000896;-0.00000896;2987.94871531;3978.46153791;791.15383886;4273.97435905;6502.43590223;4306.53846168;4169.99999986;4401.92307727
4403.20512856;4338.71794893;7911.92308471;4137.94871774;7812.17949476;2430.89743208;-0.00000896;-0.00000896;2993.84615121;4010.12820465;791.15383886;4300.64102578;4958.58974512;4304.74358989;4143.46153826;4401.92307727
4401.15384651;4339.23076944;7753.07693052;4136.41025621;7845.51282816;2334.10256008;-0.00000896;-0.00000896;3054.23076673;4009.23076875;791.28204399;4273.46153853;6440.51282517;4332.30769252;4169.87179474;4401.92307727
4370.76923105;4333.84615406;7752.69231513;4140.12820492;7617.17949434;2238.71794448;-0.00000896;-0.00000896;3122.94871559;4037.56410215;791.15383886;4274.61538469;8278.58975214;4307.05128219;4170.51282038;4369.10256438
4335.51282073;4302.56410271;7917.43590522;4170.89743576;5647.94872094;2235.51281628;-0.00000896;-0.00000896;3152.94871566;4011.41025593;725.64101821;4299.61538476;7195.12821139;4305.38461553;4169.87179474;4336.28205149
4301.02564117;4271.66666674;7746.66667411;4202.94871788;4400.89743625;2233.58973935;-0.00000896;-0.00000896;3183.84615163;4008.07692259;595.25640255;4272.30769238;4498.71794928;4305.25641040;4170.64102551;4303.58974373
4238.20512821;4237.17948718;8048.07693114;4234.23076923;3286.15384414;2235.64102141;-0.00000896;-0.00000896;3153.84615156;4008.07692259;1148.97435245;4274.23076930;3781.66666570;4306.53846168;4170.25641012;4237.94871795
4204.87179481;4208.84615378;1971.28204649;4238.07692308;2857.30768939;2271.15384199;-0.00000896;-0.00000896;3085.89743347;3976.92307637;1775.51281531;4271.53846161;2992.94871531;4332.56410278;4168.71794858;4205.12820506
4172.05128192;4206.02564096;1187.56409611;4240.51282052;2763.20512508;2298.07691898;-0.00000896;-0.00000896;3025.51281795;4008.07692259;7352.82051943;4300.12820527;3583.97435759;4305.38461553;4170.38461525;4172.30769217
4138.33333313;4206.28205122;461.53845355;4241.28205129;3680.51281934;2297.56409847;-0.00000896;-0.00000896;3024.61538205;3975.89743535;7752.69231513;4300.25641040;4893.33333473;4306.92307707;4174.23076910;4139.48717928
4076.66666632;4207.94871788;728.33332590;4235.64102564;4139.87179467;2367.82050886;-0.00000896;-0.00000896;3024.74358718;3944.10256348;8010.76923876;4272.56410264;5022.69230936;4305.00000014;4170.25641012;4073.84615350
4073.20512786;4240.25641026;791.79486450;4207.82051275;4138.71794851;2237.05127782;-0.00000896;-0.00000896;3019.99999743;4040.89743548;7752.17949462;4273.58974366;4863.33333466;4304.87179501;4171.02564089;4073.84615350
4039.48717907;4207.43589737;791.92306963;4137.82051262;2500.76922709;2496.53845786;-0.00000896;-0.00000896;3118.33333097;3912.69230700;7752.05128949;4273.97435905;4597.17948795;4305.00000014;4170.51282038;4040.89743548
4009.48717900;4269.87179495;791.53845425;4143.46153826;1745.51281524;2365.89743194;-0.00000896;-0.00000896;3054.10256160;4042.69230728;7751.79487923;4300.51282066;4599.61538538;4306.53846168;4171.15384602;4008.07692259
4011.79487131;4271.28205136;791.66665937;4139.61538441;1182.17948072;1680.25640484;-0.00000896;-0.00000896;3418.07692134;4667.94871886;7751.79487923;4273.97435905;3217.43589529;4307.05128219;4171.92307679;4008.07692259
4102.94871767;4106.79487152;791.53845425;4168.46153833;2071.02563644;2337.94871392;-0.00000896;-0.00000896;2956.66666396;4142.56410236;7752.30769975;4300.25641040;4798.20512939;4305.38461553;4171.41025628;4106.53846126
4107.56410229;4135.38461518;791.66665937;4168.46153833;1382.56409652;2530.76922716;-0.00000896;-0.00000896;2987.82051018;4203.20512814;7750.76923821;4272.82051289;3809.23076833;4304.87179501;4171.66666653;4106.53846126
4138.84615364;4137.05128185;791.66665937;4106.15384588;4135.64102544;2173.84614947;229.99999153;-0.00000896;3088.71794629;4241.02564103;7752.17949462;4274.48717956;5487.17948982;4303.58974373;4171.79487166;4139.35897415
4169.74358961;4103.07692280;791.66665937;4136.79487159;7259.10257050;2204.23076493;229.99999153;-0.00000896;3151.28204899;4235.12820513;7813.97436655;4274.48717956;5552.17948996;4303.33333348;4171.15384602;4172.17948704
4201.15384609;4072.56410222;791.53845425;4169.48717935;6271.79487611;2300.76922667;229.99999153;-0.00000896;3125.51281815;4173.58974345;7949.10257196;4299.61538476;4857.43589876;4304.61538476;4171.53846140;4204.99999993
4236.28205129;4071.02564068;659.48717192;4202.05128199;5646.02564402;2302.94871385;229.99999153;-0.00000896;3154.35897207;4137.05128185;7753.20513564;4273.46153853;3512.43589591;4303.58974373;4170.76923063;4237.94871795
4267.82051289;4071.15384581;791.53845425;4237.43589744;5489.10256675;2305.51281642;-0.00000896;-0.00000896;3154.99999771;4043.84615343;4142.94871774;4302.17948732;3614.35897304;4305.25641040;4171.15384602;4270.76923084
4271.92307700;4074.35897402;1382.82050678;4267.94871802;5744.10256730;2366.79486784;106.41024766;-0.00000896;3122.94871559;4009.35897388;596.41024870;4272.82051289;3682.43589626;4303.97435912;4170.76923063;4270.76923084
4301.92307707;4104.48717921;1741.28204600;4271.53846161;5488.07692572;2400.64102175;229.99999153;-0.00000896;3118.46153610;3945.51281989;790.89742861;4273.46153853;3879.74358898;4305.25641040;4169.48717935;4303.58974373
4303.84615399;4110.51282024;6632.17949226;4274.35897443;5846.41025982;2401.66666278;106.41024766;-0.00000896;3086.41025398;3943.07692246;723.07691565;4300.00000014;4334.87179508;4303.58974373;4169.87179474;4303.58974373
4303.84615399;4141.92307672;6105.89743986;4273.58974366;5682.94872101;2334.61538059;229.99999153;-0.00000896;3060.12820263;3910.51281982;756.28204392;4300.25641040;4759.23077035;4305.00000014;4168.71794858;4303.58974373
4300.76923091;4170.51282038;8373.84616261;4271.92307700;5907.82051637;2299.74358565;106.41024766;-0.00000896;3090.25640783;3909.87179418;792.56409527;4300.51282066;4994.10256570;4304.87179501;4169.87179474;4303.58974373
4269.48717956;4171.79487166;7718.33334070;4274.35897443;5911.92308047;2333.97435495;229.99999153;-0.00000896;3092.43589501;3877.94871719;791.66665937;4273.97435905;5125.38461726;4306.28205142;4169.48717935;4270.76923084
4235.51282052;4176.28205115;7778.71795623;4273.71794879;5844.10256751;2890.64102280;106.41024766;-0.00000896;3683.33333216;5810.76923411;788.20512091;4272.30769238;4693.58974457;4304.35897450;4169.74358961;4237.94871795
4202.17948711;4237.82051282;7752.05128949;4239.61538462;6008.97436273;2663.33333000;229.99999153;-0.00000896;3059.10256160;5682.56410563;729.87178744;4274.61538469;5256.15384831;4306.28205142;4169.10256397;4205.12820506
4208.58974352;4208.71794865;7751.66667411;4206.66666660;6368.58974811;2534.61538101;106.41024766;-0.00000896;3058.07692058;4139.99999980;985.89742902;4271.15384623;4761.79487291;4304.48717963;4169.87179474;4205.12820506
4208.84615378;4207.17948711;7751.92308436;4174.10256397;5848.33333674;2237.17948294;229.99999153;-0.00000896;2921.66666389;4004.87179439;594.99999229;4274.61538469;6400.76923536;4305.51282066;4169.48717935;4204.99999993
4207.17948711;4208.33333327;7751.79487923;4202.17948711;3716.15384505;2428.97435516;106.41024766;-0.00000896;2928.84615107;3943.07692246;4208.58974352;4274.74358982;1909.87178994;4305.38461553;4169.48717935;4205.12820506
4236.41025641;4241.02564103;7780.76923828;4138.97435877;6042.05128588;2465.64102189;229.99999153;-0.00000896;2856.92307401;3946.28205066;101.02563227;4299.48717963;5554.61538740;4305.89743604;4169.10256397;4237.82051282
4236.41025641;4268.07692315;7746.02564846;4075.76923043;5156.66666862;2302.82050872;106.41024766;-0.00000896;3059.35897186;3942.56410194;985.38460851;4299.87179501;2989.35897172;4304.87179501;4169.61538448;4237.82051282
4235.00000000;4241.02564103;7981.02564895;4011.92307644;5421.53846404;2271.02563686;229.99999153;-0.00000896;3087.94871552;3942.94871733;3093.07692065;4274.48717956;3518.58974206;4305.89743604;4169.61538448;4237.69230770
4207.69230763;4237.17948718;6141.53846557;4010.12820465;4925.51282198;2236.41025218;106.41024766;-0.00000896;3154.87179258;3973.84615329;8377.30770107;4299.61538476;2828.84615086;4304.87179501;4143.07692287;4204.87179481
4209.10256404;4235.25641026;7716.28205865;4040.89743548;3485.25640866;2266.53845737;229.99999153;-0.00000896;3158.71794643;4007.05128157;2794.48717643;4273.58974366;2461.92307317;4303.20512835;4169.61538448;4204.87179481
4208.20512814;4239.10256411;7617.94872511;4074.74358940;2105.89743138;2267.30768814;106.41024766;-0.00000896;3190.12820291;3975.76923022;2138.46153402;4273.84615392;2169.87179050;4304.10256425;4169.74358961;4204.99999993
4175.64102551;4272.56410264;8044.10257217;4140.38461518;2134.74358530;2202.56409826;229.99999153;-0.00000896;3288.97435696;4037.69230728;3876.53846078;4301.28205142;2136.28204684;4302.43589758;4169.87179474;4172.17948704
4169.35897422;4301.02564117;8113.07693128;4233.84615385;2857.56409965;2201.79486749;106.41024766;-0.00000896;3252.69230561;4007.82051234;4530.12820576;4300.25641040;2399.74358586;4304.23076937;4142.56410236;4172.30769217
4138.33333313;4302.17948732;5976.53846523;4272.17948725;2957.05127935;2200.12820082;229.99999153;-0.00000896;3221.66666452;4073.58974325;1287.05127580;4304.10256425;2301.02563693;4301.79487194;4170.38461525;4139.48717928
4136.92307672;4234.61538462;2002.69230297;4303.33333348;3351.41025454;2367.17948322;106.41024766;-0.00000896;3482.69230610;4236.53846154;657.30768474;4303.71794886;3386.53845974;4304.74358989;4169.74358961;4139.48717928
4105.38461511;4169.74358961;399.10255598;4534.10256473;4956.28205281;2305.51281642;229.99999153;-0.00000896;3353.07692120;4071.41025607;7320.76923730;4300.51282066;4466.41025690;4304.48717963;4170.25641012;4106.92307665
4076.02564068;4169.48717935;691.15383865;4402.17948753;5356.92307929;2630.12820173;106.41024766;-0.00000896;2725.25640706;4043.84615343;7745.76923821;4273.20512828;4238.07692308;4304.61538476;4173.33333320;4073.97435863
4106.02564075;4175.76923063;792.56409527;4236.53846154;5843.71795213;2334.99999597;229.99999153;-0.00000896;3052.69230519;4072.17948684;8044.61539268;4300.64102578;5285.64102787;4303.84615399;4170.51282038;4106.66666639
4138.33333313;4205.64102558;787.94871066;4238.46153847;8112.56411077;2206.02563672;106.41024766;-0.00000896;3056.41025391;4071.79487145;7784.23077674;4300.51282066;8143.58975186;4306.28205142;4170.89743576;4139.48717928
4140.25641005;4203.58974352;463.33332535;4237.94871795;7225.38462171;2267.17948301;229.99999153;-0.00000896;2993.71794608;4043.46153805;8044.74359781;4273.97435905;6433.97436363;4305.12820527;4170.64102551;4139.48717928
4142.56410236;4201.15384609;561.79486402;4238.58974359;5881.41025989;2267.94871378;106.41024766;-0.00000896;2991.41025377;4043.33333292;7948.58975145;4300.76923091;5023.46154013;4304.23076937;4170.38461525;4139.48717928
4170.64102551;4173.97435884;3059.87179237;4239.10256411;6104.61538858;2265.38461122;229.99999153;-0.00000896;2990.89743326;4069.74358940;5289.61538684;4273.71794879;4466.66666716;4306.28205142;4171.53846140;4172.30769217
4103.71794844;4137.82051262;8342.43590613;4203.20512814;6406.41026100;2271.92307276;-0.00000896;-0.00000896;3184.99999778;4109.61538434;134.10255542;4274.48717956;5121.28205316;4304.23076937;4171.15384602;4106.66666639
4307.05128219;4137.30769210;7884.35898208;4235.00000000;6797.17949260;2659.35897103;-0.00000896;-0.00000896;2400.51281663;4660.51282142;725.51281308;4273.07692315;5684.35897742;4306.02564117;4170.51282038;4303.58974373
4203.46153840;4299.74358989;8076.66667480;4138.97435877;6800.12821055;2068.20512362;3.58973463;-0.00000896;3124.61538226;3944.10256348;-0.00000896;4274.74358982;5093.20513002;4303.84615399;4171.15384602;4204.99999993
4171.41025628;4266.66666674;7720.51282788;4108.07692280;5355.64102801;2232.30768807;229.99999153;-0.00000896;3187.05127983;4006.15384567;6013.84615760;4274.23076930;4203.71794865;4305.64102578;4168.97435884;4172.17948704
4168.20512807;4239.61538462;7549.10257112;4268.20512828;2332.56409854;2137.05127761;229.99999153;-0.00000896;3249.74358766;4109.61538434;3714.61538351;4273.71794879;2270.76922660;4304.23076937;4170.89743576;4172.30769217
4235.64102564;4205.38461532;888.46153138;4431.02564145;4172.17948704;2265.12820096;229.99999153;-0.00000896;3053.71794622;3939.35897374;1746.41025113;4300.12820527;3353.46153659;4305.89743604;4170.76923063;4238.07692308
4208.33333327;4208.97435891;825.89742867;4301.41025655;2725.64102245;2626.66666327;229.99999153;-0.00000896;3025.76922820;4008.84615336;5352.30769467;4301.66666681;921.02563401;4305.38461553;4170.64102551;4205.12820506
4234.10256411;4239.10256411;563.84614607;4237.56410257;5749.61538782;2236.79486756;-0.00000896;-0.00000896;3059.23076673;4075.12820478;7751.02564846;4273.58974366;5486.41025905;4305.12820527;4171.41025628;4237.94871795
4234.48717949;4237.69230770;762.05127469;4235.12820513;6635.00000508;2237.82050859;-0.00000896;-0.00000896;3121.28204892;4077.05128171;8076.92308506;4301.02564117;5288.46154069;4305.76923091;4174.23076910;4237.94871795
4235.00000000;4208.58974352;789.23076194;4235.12820513;6534.74359461;2267.30768814;-0.00000896;-0.00000896;3088.71794629;4106.41025614;7753.07693052;4274.61538469;6730.38462067;4305.38461553;4171.66666653;4237.94871795
4233.84615385;4207.30769224;790.76922348;4234.35897436;5907.94872150;2265.25640609;-0.00000896;-0.00000896;3090.89743347;4137.82051262;7751.41026385;4274.61538469;3515.51281899;4304.61538476;4170.76923063;4237.94871795
4233.84615385;4207.05128199;791.28204399;4234.61538462;5778.97436224;2297.94871385;-0.00000896;-0.00000896;3086.41025398;4140.64102544;7751.79487923;4300.00000014;4798.71794990;4304.74358989;4171.79487166;4237.94871795
4235.38461539;4206.92307686;791.28204399;4236.66666667;5777.69231096;2302.94871385;-0.00000896;-0.00000896;3053.33333084;4142.30769210;7751.28205872;4300.51282066;4303.84615399;4305.76923091;4172.82051269;4237.94871795
4239.10256411;4208.46153840;791.02563373;4237.82051282;5682.43590050;2302.17948308;-0.00000896;-0.00000896;3022.05127948;4175.76923063;7751.53846898;4300.76923091;4208.58974352;4304.35897450;4171.28205115;4237.94871795
4268.33333341;4208.20512814;791.02563373;4238.97435898;5652.82051581;2268.20512404;-0.00000896;-0.00000896;3022.05127948;4207.56410250;7751.79487923;4274.23076930;4070.25640991;4307.05128219;4171.28205115;4270.76923084
4270.51282059;4203.07692301;790.25640296;4236.66666667;5682.17949024;2206.53845723;-0.00000896;-0.00000896;3027.56410000;4236.15384616;7784.23077674;4301.02564117;3812.94871705;4304.48717963;4171.28205115;4270.76923084
4270.25641033;4141.41025621;730.12819770;4208.58974352;5648.97436197;2200.25640595;-0.00000896;-0.00000896;3086.79486937;4266.66666674;7910.25641804;4301.53846168;3584.48717810;4304.74358989;4171.02564089;4270.76923084
4269.74358982;4076.66666632;560.76922299;4205.38461532;5584.87179772;2206.41025211;-0.00000896;-0.00000896;3122.94871559;4241.53846154;7488.33334022;4299.87179501;3417.82051109;4304.87179501;4170.64102551;4270.76923084
4268.84615392;4044.10256369;1680.12819971;4203.07692301;5680.25641332;2266.66666250;-0.00000896;-0.00000896;3157.43589515;4205.89743583;6669.35897950;4299.61538476;3216.66666452;4302.94871809;4170.76923063;4270.76923084
4241.28205129;4011.66666618;1774.10255889;4203.07692301;5715.12820826;2239.87179064;-0.00000896;-0.00000896;3217.43589529;4174.74358961;4595.00000077;4299.48717963;3190.25640804;4304.48717963;4170.38461525;4237.94871795
4238.71794872;4006.66666618;2234.10255987;4207.82051275;5417.17948968;2299.99999590;-0.00000896;-0.00000896;3219.74358759;4142.69230749;2993.58974095;4273.71794879;2859.87179196;4305.89743604;4169.99999986;4237.94871795
4235.12820513;3979.10256355;2987.43589480;4235.64102564;5521.02564374;2270.25640609;-0.00000896;-0.00000896;3218.84615170;4138.07692287;5029.48718116;4300.12820527;2693.46153520;4305.89743604;4168.97435884;4237.94871795
4206.41025634;3975.51281996;3249.74358766;4236.53846154;5553.33333612;2266.15384199;-0.00000896;-0.00000896;3223.07692093;4102.69230742;5915.12820868;4299.48717963;2593.71794525;4304.87179501;4169.61538448;4205.12820506
4201.02564096;3943.84615322;3288.71794671;4236.92307693;5488.20513085;2237.94871371;-0.00000896;-0.00000896;3223.97435682;4069.74358940;5026.02564270;4273.97435905;2697.43589417;4305.51282066;4168.71794858;4205.12820506
4171.15384602;3911.53846085;3776.66666570;4208.07692301;5649.23077222;2265.12820096;-0.00000896;-0.00000896;3191.66666445;4009.35897388;3612.05128073;4300.76923091;2661.28204795;4303.46153860;4168.97435884;4172.30769217
4169.23076910;3907.94871726;4759.61538573;4205.64102558;5517.05128477;2265.25640609;-0.00000896;-0.00000896;3157.82051053;3943.97435835;2369.61538066;4274.74358982;3085.64102321;4306.41025655;4168.71794858;4172.30769217
4143.07692287;3908.58974290;4797.82051401;4206.53846147;5713.07692621;2267.30768814;-0.00000896;-0.00000896;3154.35897207;3874.74358898;1281.53845529;4300.51282066;3351.92307505;4305.89743604;4143.33333313;4139.48717928
4142.82051262;3912.43589674;4960.12820666;4234.35897436;5422.17948968;2330.64102161;-0.00000896;-0.00000896;3121.92307456;3811.28205038;1216.53845515;4300.64102578;4335.51282073;4305.89743604;4141.79487159;4139.48717928
4168.33333320;3946.02564040;5580.25641311;4236.41025641;5685.76923383;2369.61538066;-0.00000896;-0.00000896;3056.66666417;3776.02564006;2335.76922674;4300.12820527;4207.94871788;4305.76923091;4142.30769210;4172.30769217
4170.38461525;3978.07692252;4890.25641165;4206.28205122;5383.07692551;2367.17948322;-0.00000896;-0.00000896;2990.64102300;3714.23076812;2232.05127782;4300.89743604;3940.76923015;4304.48717963;4141.02564082;4172.30769217
4202.82051275;4011.66666618;4892.94871934;4202.05128199;5553.20513099;2332.94871392;-0.00000896;-0.00000896;2989.87179224;3708.84615274;2534.74358613;4300.25641040;3874.99999924;4305.25641040;4141.92307672;4205.12820506
4234.23076923;4043.84615343;5022.05128372;4175.25641012;5552.17948996;2301.92307283;229.99999153;-0.00000896;2994.35897172;3680.25640908;1546.28204559;4301.79487194;4830.38461664;4303.97435912;4141.41025621;4237.82051282
4240.38461539;4077.17948684;5684.23077229;4176.28205115;5582.56410542;2330.76922674;2.17947822;-0.00000896;3027.05127948;3709.35897325;1544.74358405;4301.41025655;4301.02564117;4304.74358989;4141.79487159;4237.82051282
4270.64102571;4108.46153819;5352.94872032;4204.35897429;5550.25641304;2335.12820110;-0.00000896;-0.00000896;3058.58974109;3712.43589633;2430.25640644;4274.61538469;3480.51281892;4305.12820527;4141.02564082;4270.76923084
4273.46153853;4138.33333313;5218.46154055;4206.41025634;5515.51282323;2333.97435495;-0.00000896;-0.00000896;3085.12820270;3715.89743479;2534.61538101;4274.74358982;2824.61538163;4306.28205142;4141.41025621;4270.76923084
4304.35897450;4168.71794858;5449.61538719;4205.76923070;5547.05128483;2337.56409854;229.99999153;-0.00000896;3025.38461282;3744.87179383;2795.76922772;4274.35897443;2202.30768800;4304.48717963;4140.64102544;4303.58974373
4336.41025662;4173.20512807;5520.38461810;4205.51282045;5551.41025919;2331.41025238;229.99999153;-0.00000896;3027.05127948;3745.89743486;1349.87178876;4273.71794879;1411.28204531;4306.15384630;4140.89743569;4336.41025662
4366.41025669;4174.87179474;5585.64102849;4202.05128199;5552.56410535;2330.89743187;229.99999153;-0.00000896;3085.51281808;3748.97435794;2300.64102155;4301.28205142;1547.82050713;4305.51282066;4140.64102544;4369.23076951
4369.35897464;4174.87179474;5456.02564360;4174.10256397;5682.69231075;2301.92307283;229.99999153;-0.00000896;3092.43589501;3748.97435794;2137.56409812;4300.64102578;1416.02563505;4304.35897450;4141.02564082;4369.10256438
4368.07692336;4172.30769217;5579.61538747;4171.53846140;5550.25641304;2301.92307283;229.99999153;-0.00000896;3123.84615149;3775.64102467;2104.48717497;4299.74358989;1217.17948079;4303.46153860;4140.25641005;4369.10256438
4367.05128233;4173.46153833;5517.56410528;4139.74358954;5548.20513099;2333.46153444;229.99999153;-0.00000896;3191.66666445;3746.41025537;2366.02563707;4303.97435912;1084.87178820;4303.20512835;4139.35897415;4369.10256438
4338.20512842;4173.84615371;5649.48718248;4138.97435877;5612.94872087;2334.87179085;229.99999153;-0.00000896;3223.84615170;3742.56410153;1676.79486638;4299.61538476;1452.17948128;4306.79487194;4139.87179467;4336.28205149
4333.46153867;4174.74358961;5253.07692523;4138.84615364;5449.74359232;2331.92307290;229.99999153;-0.00000896;3218.46153631;3744.61538358;1248.84614753;4301.41025655;1679.35896894;4303.20512835;4141.41025621;4336.28205149
4302.05128219;4172.30769217;5418.07692558;4107.94871767;5486.66666931;2298.97435488;229.99999153;-0.00000896;3221.66666452;3716.28205017;1744.10255883;4301.41025655;1841.66666160;4307.43589758;4137.94871774;4303.46153860
4272.17948725;4171.92307679;5486.02564367;4102.56410229;5547.17948996;2337.94871392;229.99999153;-0.00000896;3250.76922869;3716.28205017;2009.35896964;4300.25641040;2628.97435557;4305.38461553;4138.97435877;4270.64102571
4238.33333334;4174.35897422;5354.35897673;4076.28205094;5452.43590001;2303.07691898;229.99999153;-0.00000896;3282.69230568;3741.66666563;1183.20512175;4299.48717963;4108.46153819;4304.48717963;4142.43589723;4237.82051282
4206.15384609;4175.51282038;5586.28205413;4073.46153812;5521.92307964;2299.87179078;229.99999153;-0.00000896;3288.46153645;3743.07692204;1648.46153298;4301.66666681;4467.05128254;4303.97435912;4139.35897415;4204.99999993
4175.76923063;4176.15384602;4765.89743701;4073.84615350;5550.00000278;2332.17948315;229.99999153;-0.00000896;3220.51281836;3714.35897325;3348.58974172;4300.51282066;3941.15384553;4303.58974373;4139.23076903;4172.17948704
4201.41025634;4204.48717942;4799.23077042;4044.23076882;5615.00000292;2305.25640616;229.99999153;-0.00000896;3158.46153617;3710.89743479;2630.12820173;4304.87179501;3646.02563978;4302.17948732;4139.74358954;4204.87179481
4207.56410250;4208.07692301;4893.33333473;4070.38461504;5547.94872073;2298.33332924;229.99999153;-0.00000896;3217.82051067;3711.02563992;2991.28204865;4301.02564117;4234.23076923;4303.20512835;4139.48717928;4204.99999993
4238.46153847;4235.38461539;4663.58974450;4070.38461504;5582.43590029;2269.10255994;229.99999153;-0.00000896;3218.07692093;3743.20512717;2167.82050845;4301.41025655;6243.58974783;4302.94871809;4139.74358954;4237.82051282
4268.07692315;4236.41025641;4764.48718060;4041.28205087;5382.69231013;2267.05127789;229.99999153;-0.00000896;3222.05127990;3716.41025530;3354.23076736;4300.51282066;2468.46153471;4302.17948732;4139.61538441;4270.51282059
4270.38461546;4236.41025641;6434.23077389;4040.51282010;5551.41025919;2237.94871371;229.99999153;-0.00000896;3288.46153645;3711.02563992;2696.02563776;4303.97435912;1678.97435356;4300.64102578;4139.10256390;4270.51282059
4274.35897443;4238.07692308;6338.58974804;4041.41025600;5613.33333626;2264.87179071;229.99999153;-0.00000896;3348.33333146;3710.12820402;2627.82050942;4301.53846168;625.25640262;4302.05128219;4139.99999980;4270.51282059
4273.33333341;4239.35897436;6472.43590216;4040.38461497;5584.87179772;2297.69230360;229.99999153;-0.00000896;3350.76922890;3677.94871677;2236.28204705;4303.46153860;624.48717185;4301.66666681;4138.58974339;4270.51282059
4271.15384623;4241.15384616;7290.38462185;4010.12820465;5422.69231020;2303.58973949;229.99999153;-0.00000896;3351.66666479;3649.10256286;2074.99999542;4304.35897450;792.43589014;4300.89743604;4139.48717928;4270.51282059
4267.43589751;4270.76923084;6832.82051831;3977.30769176;5684.23077229;2333.97435495;229.99999153;-0.00000896;3349.23076736;3645.64102439;1447.30768641;4302.82051296;596.79486409;4301.92307707;4136.66666646;4270.51282059
4240.00000000;4303.46153860;6990.76923661;3940.51281989;5518.97436169;2271.15384199;229.99999153;-0.00000896;3354.10256223;3643.07692183;1087.43589077;4304.48717963;1150.64101911;4273.97435905;4139.61538441;4237.69230770
4209.10256404;4337.43589765;7128.07692920;3911.15384546;5515.00000271;2239.10255987;229.99999153;-0.00000896;3447.94871628;3616.28204997;857.82050567;4305.38461553;694.10255660;4274.10256418;4139.10256390;4204.74358968
4201.53846147;4370.89743618;3254.23076715;3878.58974283;5357.82051519;2267.56409840;229.99999153;-0.00000896;3451.66666500;3617.17948586;2265.51281635;4303.20512835;5452.43590001;4273.71794879;4139.61538441;4204.74358968
4168.84615371;4405.76923112;8377.30770107;3875.12820437;5550.51282330;2267.05127789;229.99999153;-0.00000896;3512.69230617;3616.02563971;1185.12819867;4304.87179501;139.23076055;4270.76923084;4140.89743569;4171.92307679
4138.58974339;4466.79487229;5321.02564332;3875.25640950;5516.15384887;2269.61538045;229.99999153;-0.00000896;3518.84615232;3645.25640901;1610.89743034;4305.76923091;1315.25640408;4270.51282059;4141.02564082;4139.10256390
4109.61538434;4530.89743653;5747.17949038;3878.46153770;5092.30769412;2235.89743166;229.99999153;-0.00000896;3546.28204983;3677.82051164;3419.99999827;4303.97435912;954.74358280;4269.87179495;4140.51282031;4106.28205101
4107.94871767;4564.74359044;3514.74358822;3908.97435828;5355.89743826;2167.82050845;229.99999153;-0.00000896;3611.02563971;3776.02564006;8140.38462366;4306.66666681;630.38460774;4271.02564110;4142.30769210;4106.28205101
4109.74358947;4568.58974429;3087.82051039;3940.89743528;5382.82051526;2166.41025204;229.99999153;-0.00000896;3616.53846022;3847.94871712;7063.46154444;4332.43589765;3216.79486964;4268.71794879;4141.28205108;4106.41025614
4138.97435877;4597.30769308;3023.46153589;3972.43589688;5389.23077167;2168.84614947;229.99999153;-0.00000896;3546.53846008;3938.97435835;7652.56410979;4304.10256425;2141.28204684;4268.97435905;4143.46153826;4139.23076903
4171.41025628;4598.46153923;2633.46153506;3972.30769176;5581.15384901;2141.15384171;229.99999153;-0.00000896;3485.76922917;3976.66666611;7715.25641763;4305.89743604;2567.56409902;4267.82051289;4169.74358961;4172.05128192
4207.94871788;4599.35897513;2138.07691863;3946.28205066;5515.25641297;2039.74358509;229.99999153;-0.00000896;3549.87179342;4036.92307651;6339.10256855;4305.25641040;8371.02564978;4269.23076930;4169.74358961;4204.87179481
4241.92307693;4596.15384692;2204.99999570;3971.66666611;5485.38461803;1972.94871316;-0.00000896;-0.00000896;3644.48717824;4073.71794837;3316.28204934;4304.48717963;6633.71795379;4267.17948725;4170.51282038;4237.69230770
4271.15384623;4562.17948788;2199.35897005;3979.10256355;5420.76923327;2005.51281579;66.53845272;-0.00000896;3679.87179369;4105.12820485;3675.89743472;4305.51282066;6567.17949212;4267.43589751;4170.89743576;4270.51282059
4271.02564110;4502.17948774;2464.74358600;3976.28205073;5612.94872087;2007.30768759;229.99999153;-0.00000896;3741.92307588;4139.23076903;4536.79487242;4306.28205142;6009.23077299;4241.41025641;4171.92307679;4270.51282059
4268.46153853;4467.56410305;2630.89743250;3977.43589688;5415.51282302;2010.12820041;66.53845272;-0.00000896;3776.02564006;4174.61538448;4989.74359135;4303.71794886;6406.02564562;4240.89743590;4172.05128192;4270.51282059
4268.46153853;4435.00000042;2567.05127851;3979.10256355;5486.79487444;2036.28204663;-0.00000896;-0.00000896;3777.30769134;4235.12820513;3288.58974158;4305.25641040;6932.82051852;4266.79487187;4173.07692294;4270.51282059
4270.00000007;4403.84615420;2428.84615003;4007.05128157;5351.66666903;2035.25640560;-0.00000896;-0.00000896;3780.12820416;4271.41025648;3841.66666584;4304.74358989;6040.64102947;4241.41025641;4170.64102551;4270.51282059
4271.53846161;4397.94871830;2462.30768856;4036.92307651;5323.33333563;2037.43589278;-0.00000896;-0.00000896;3781.02564006;4306.02564117;4533.58974422;4304.61538476;6074.35897825;4240.12820513;4172.94871781;4270.51282059
4273.46153853;4370.64102592;2499.61538094;4041.53846113;5550.64102842;1975.25640547;-0.00000896;-0.00000896;3779.87179390;4368.07692336;5256.66666882;4305.25641040;5422.05128456;4240.38461539;4173.58974345;4270.51282059
4299.87179501;4338.71794893;2628.07691968;4071.02564068;5357.82051519;1936.92307206;-0.00000896;-0.00000896;3843.58974276;4368.97435926;5619.10256702;4306.41025655;6143.97436301;4240.25641026;4173.71794858;4303.46153860
4300.38461553;4304.87179501;2664.87179154;4103.46153819;5646.28205427;1876.66666167;-0.00000896;-0.00000896;3877.82051206;4367.82051310;6539.23077410;4303.33333348;6928.97436468;4239.23076923;4174.35897422;4303.46153860
4274.61538469;4268.97435905;1908.97435404;4136.53846133;5418.97436148;1841.41025134;-0.00000896;-0.00000896;3905.64102495;4334.35897457;6469.87179960;4303.20512835;7391.79487847;4240.12820513;4173.97435884;4270.64102571
4272.69230777;4234.35897436;2666.15384282;4171.53846140;5320.89743819;1842.94871288;-0.00000896;-0.00000896;3908.58974290;4300.38461553;6730.89744118;4306.15384630;7450.51282733;4239.23076923;4174.35897422;4270.64102571
4270.12820520;4175.89743576;2534.23076562;4206.28205122;5256.41025857;1841.53845647;-0.00000896;-0.00000896;3912.30769162;4241.66666667;7123.07692920;4304.87179501;5745.76923397;4237.94871795;4173.07692294;4270.76923084
4240.25641026;4142.94871774;3582.05128067;4240.25641026;5388.84615628;1874.87178987;-0.00000896;-0.00000896;3938.84615322;4234.87179488;5979.23077292;4305.25641040;5679.10256716;4239.74358975;4174.10256397;4237.94871795
4237.69230770;4138.97435877;3612.17948586;4273.58974366;5187.82051484;1943.20512334;-0.00000896;-0.00000896;3939.61538399;4174.74358961;5255.25641241;4304.74358989;5456.02564360;4238.20512821;4175.64102551;4237.94871795
4207.69230763;4139.99999980;4500.12820569;4303.20512835;5351.41025878;2003.97435425;-0.00000896;-0.00000896;3913.71794803;4171.66666653;4564.23076993;4302.69230784;5389.61538705;4240.38461539;4173.71794858;4205.12820506
4204.23076917;4169.23076910;4273.58974366;4307.17948732;5323.33333563;2002.56409784;-0.00000896;-0.00000896;3910.38461469;4142.30769210;3085.38461296;4305.38461553;4829.23077049;4238.20512821;4173.58974345;4205.12820506
4175.64102551;4171.66666653;4367.05128233;4336.53846175;5252.30769447;1942.69230283;-0.00000896;-0.00000896;3910.89743521;4142.43589723;2534.10256049;4305.51282066;5880.38461886;4240.89743590;4173.71794858;4172.43589730
4170.12820499;4174.48717935;4333.46153867;4366.15384644;5322.43589973;1936.79486693;-0.00000896;-0.00000896;3908.33333264;4170.89743576;2692.05127879;4305.00000014;5521.79487451;4239.35897436;4173.58974345;4172.43589730
4168.46153833;4175.76923063;4334.87179508;4370.89743618;5256.53846370;1942.94871309;-0.00000896;-0.00000896;3873.46153770;4171.41025628;4037.05128164;4304.48717963;4760.76923188;4240.38461539;4173.20512807;4172.43589730
4141.15384595;4176.28205115;4467.69230818;4404.23076958;5321.15384845;1973.97435418;-0.00000896;-0.00000896;3812.43589654;4170.51282038;5418.33333584;4302.43589758;4530.00000063;4241.02564103;4173.97435884;4139.61538441
4138.84615364;4175.64102551;4300.89743604;4433.84615427;5354.87179724;2002.30768759;-0.00000896;-0.00000896;3839.99999917;4173.58974345;5878.71795220;4306.28205142;4306.15384630;4239.87179488;4172.94871781;4139.61538441
4108.71794844;4173.20512807;4469.61538511;4435.38461581;5322.17948948;1975.12820034;-0.00000896;-0.00000896;3808.97435807;4175.89743576;5976.92308061;4305.64102578;4793.46153965;4267.17948725;4173.46153833;4106.79487152
4077.82051248;4169.35897422;4368.07692336;4435.38461581;5488.97436162;2009.10255938;-0.00000896;-0.00000896;3745.76922973;4172.30769217;5220.38461747;4303.97435912;5321.41025871;4241.92307693;4172.17948704;4073.97435863
4072.30769196;4169.48717935;4766.02564214;4405.64102599;5385.38461782;2041.41025176;-0.00000896;-0.00000896;3677.17948600;4173.33333320;5156.28205323;4303.33333348;5290.25641248;4241.92307693;4173.84615371;4073.97435863
4070.12820478;4168.97435884;5087.94871976;4399.61538497;5256.28205344;2068.58973901;-0.00000896;-0.00000896;3617.82051150;4174.35897422;5255.76923293;4305.25641040;5651.92307991;4267.17948725;4173.58974345;4073.97435863
4044.99999959;4171.66666653;4403.33333368;4370.00000028;5450.76923334;2068.71794414;-0.00000896;-0.00000896;3616.79487048;4203.46153840;5390.38461782;4306.28205142;5875.38461886;4241.79487180;4173.97435884;4041.15384574
4070.38461504;4174.35897422;4464.23076972;4368.33333362;5284.35897659;2070.25640567;-0.00000896;-0.00000896;3614.48717817;4204.23076917;5123.46154034;4305.38461553;5849.61538802;4266.92307700;4171.92307679;4073.97435863
4072.05128171;4174.23076910;4234.87179488;4366.92307720;5417.30769481;2070.89743132;229.99999153;-0.00000896;3612.82051150;4237.17948718;5745.51282371;4333.33333355;5647.30769530;4241.66666667;4173.84615371;4073.97435863
4073.07692273;4172.56410243;4137.30769210;4340.00000021;5352.56410493;2102.30768779;229.99999153;-0.00000896;3584.35897297;4267.82051289;5157.05128400;4305.51282066;5880.00000348;4267.56410264;4174.10256397;4073.97435863
4074.61538427;4172.17948704;4175.38461525;4337.94871816;5488.33333598;2136.79486735;229.99999153;-0.00000896;3579.35897297;4270.51282059;5057.30769405;4303.20512835;5845.64102905;4267.82051289;4173.46153833;4073.97435863
4102.69230742;4173.97435884;4204.61538455;4335.76923098;5357.43589980;2103.71794421;229.99999153;-0.00000896;3581.79487041;4268.97435905;4498.33333389;4305.25641040;6076.92308082;4269.10256418;4174.48717935;4106.79487152
4105.64102537;4173.97435884;3913.71794803;4334.87179508;5515.00000271;2103.07691856;3.58973463;-0.00000896;3584.61538323;4240.25641026;4172.05128192;4305.89743604;6466.41026114;4268.07692315;4173.58974345;4106.79487152
4106.02564075;4172.56410243;3647.69230645;4335.64102585;5485.00000264;2101.41025190;0.64101668;-0.00000896;3610.89743458;4233.97435898;4009.99999952;4302.56410271;6008.46154222;4267.17948725;4174.35897422;4106.79487152
4106.02564075;4171.53846140;4176.02564089;4337.17948739;5317.94872025;2103.84614933;229.99999153;-0.00000896;3579.87179349;4206.02564096;4694.48718046;4305.25641040;4563.71794942;4269.74358982;4173.71794858;4106.79487152
4105.38461511;4169.61538448;4828.07692433;4336.41025662;5422.69231020;2134.23076479;0.64101668;-0.00000896;3548.84615239;4205.76923070;4174.99999986;4303.46153860;4701.28205226;4270.12820520;4173.97435884;4106.79487152
4105.76923050;4169.35897422;5585.38461824;4334.61538483;5287.69230992;2107.43589292;229.99999153;-0.00000896;3517.82051130;4205.25641019;2727.94871476;4305.64102578;4693.71794969;4269.87179495;4174.61538448;4106.79487152
4106.53846126;4169.74358961;5482.82051546;4304.61538476;5355.51282288;2107.56409805;0.64101668;-0.00000896;3512.56410104;4208.33333327;2432.82050900;4301.15384630;4700.00000098;4268.97435905;4174.10256397;4106.66666639
4109.23076896;4168.71794858;5383.33333577;4300.76923091;5422.94872045;2139.99999556;229.99999153;-0.00000896;3481.41025482;4207.69230763;2136.41025197;4300.76923091;4532.56410319;4269.87179495;4174.35897422;4106.66666639
4137.69230749;4168.58974345;5417.82051533;4272.05128212;5351.15384852;2200.25640595;0.64101668;-0.00000896;3479.35897276;4234.48717949;2532.69230408;4302.82051296;4240.51282052;4270.00000007;4173.97435884;4139.48717928
4142.56410236;4168.84615371;6241.92308117;4238.07692308;5456.28205386;2202.17948288;229.99999153;-0.00000896;3516.28204976;4236.79487180;2697.05127879;4304.87179501;4303.71794886;4270.00000007;4172.56410243;4139.48717928
4170.51282038;4168.84615371;5189.87179689;4207.05128199;5484.23077188;2100.89743138;0.64101668;-0.00000896;3584.48717810;4238.84615385;3125.89743354;4305.25641040;4498.84615441;4270.51282059;4174.23076910;4172.30769217
4173.33333320;4140.76923056;5158.71795067;4207.05128199;5323.07692537;1975.38461059;229.99999153;-0.00000896;3645.89743465;4240.89743590;2463.58973984;4305.38461553;4402.30769266;4270.00000007;4173.84615371;4172.30769217
4173.07692294;4136.66666646;5027.56410424;4238.20512821;5356.28205365;1911.28204635;0.64101668;-0.00000896;3617.82051150;4268.58974366;2498.58973991;4304.74358989;3550.38461393;4268.97435905;4173.58974345;4172.30769217
4174.10256397;4106.66666639;4926.53846300;4272.30769238;5386.15384859;1910.12820020;229.99999153;-0.00000896;3580.76922938;4266.92307700;3813.84615295;4302.69230784;3191.28204906;4269.61538469;4172.05128192;4172.30769217
4174.35897422;4077.69230735;6177.56410667;4302.82051296;5585.38461824;1942.56409770;0.64101668;-0.00000896;3546.15384470;4237.82051282;5027.17948885;4306.02564117;3221.15384400;4268.46153853;4173.58974345;4172.30769217
4201.15384609;4075.12820478;5744.35897756;4304.35897450;5321.41025871;1969.61537982;229.99999153;-0.00000896;3512.94871642;4209.10256404;4863.07692440;4304.61538476;3975.51281996;4270.76923084;4173.33333320;4205.12820506
4203.84615378;4074.99999966;5976.15384984;4305.64102578;5449.23077181;1942.69230283;0.64101668;-0.00000896;3482.82051123;4202.56410250;3058.97435648;4305.12820527;4333.71794893;4270.12820520;4171.92307679;4205.12820506
4207.30769224;4073.33333299;5193.71795074;4306.02564117;5156.66666862;1973.71794393;229.99999153;-0.00000896;3452.56410090;4171.15384602;3548.07692162;4306.15384630;4201.15384609;4268.97435905;4173.07692294;4205.12820506
4208.33333327;4074.87179453;5220.64102773;4334.23076944;5584.35897721;2006.28204656;0.64101668;-0.00000896;3421.15384442;4139.35897415;4239.23076923;4304.10256425;4694.61538559;4269.87179495;4172.69230756;4205.25641019
4233.84615385;4076.15384581;5028.97436065;4333.97435919;5384.48718192;2041.41025176;229.99999153;-0.00000896;3415.64102391;4139.61538441;4697.05128303;4332.30769252;4140.12820492;4271.41025648;4172.69230756;4238.07692308
4235.00000000;4103.20512793;4991.92307853;4332.30769252;5453.84615642;2072.69230311;0.64101668;-0.00000896;3385.64102384;4105.12820485;4830.76923202;4303.07692322;4403.46153881;4270.38461546;4172.43589730;4238.07692308
4233.97435898;4105.64102537;5054.35897610;4303.20512835;5320.25641255;2103.33332882;229.99999153;-0.00000896;3382.43589563;4077.82051248;4338.46153867;4302.17948732;4930.64102710;4272.94871802;4172.05128192;4237.94871795
4208.46153840;4106.92307665;4467.56410305;4300.00000014;5453.84615642;2103.84614933;0.64101668;-0.00000896;3383.58974179;4073.46153812;4070.51282017;4303.20512835;5090.64102745;4271.66666674;4172.05128192;4205.12820506
4205.89743583;4109.48717921;4895.64102703;4271.53846161;5354.23077160;2134.99999556;229.99999153;-0.00000896;3386.28204948;4070.25640991;3909.48717880;4304.10256425;4988.84615545;4271.92307700;4172.17948704;4205.12820506
4203.46153840;4137.56410236;4799.74359093;4269.23076930;5586.02564388;2199.23076493;0.64101668;-0.00000896;3387.43589563;4043.58974318;3878.58974283;4302.69230784;4961.92307846;4270.76923084;4171.41025628;4205.12820506
4201.66666660;4140.64102544;5029.61538629;4240.25641026;5186.41025843;2202.56409826;229.99999153;-0.00000896;3416.79487006;4042.05128164;3880.25640950;4302.43589758;4728.71794976;4270.51282059;4172.94871781;4205.12820506
4175.76923063;4170.51282038;4404.10256445;4237.05128206;5485.38461803;2231.79486756;0.64101668;-0.00000896;3421.02563929;4042.43589702;3676.66666549;4303.58974373;4466.53846203;4270.25641033;4172.05128192;4172.30769217
4173.33333320;4175.25641012;4663.20512911;4235.12820513;5191.53846356;2233.07691884;229.99999153;-0.00000896;3449.74358808;4044.87179446;3677.94871677;4303.97435912;4566.15384685;4270.00000007;4171.28205115;4172.30769217
4173.97435884;4203.58974352;4698.84615482;4207.56410250;5515.89743861;2205.38461108;0.64101668;-0.00000896;3479.35897276;4074.87179453;3349.48717761;4305.25641040;4629.35897520;4269.48717956;4171.53846140;4172.30769217
4172.69230756;4206.53846147;4172.69230756;4208.71794865;5451.28205386;2203.33332903;229.99999153;-0.00000896;3480.64102405;4104.35897408;3680.38461421;4305.38461553;4499.61538518;4271.53846161;4171.53846140;4172.30769217
4174.35897422;4209.10256404;4137.17948697;4233.84615385;5483.46154111;2202.56409826;6.15383719;-0.00000896;3484.10256251;4109.61538434;4006.92307644;4305.25641040;4467.69230818;4272.05128212;4171.28205115;4172.30769217
4201.02564096;4234.74358975;4633.97435981;4236.28205129;5320.00000230;2173.58973922;33.84614496;-0.00000896;3484.48717789;4107.56410229;4041.92307651;4303.33333348;4567.17948788;4271.02564110;4174.48717935;4205.12820506
4202.69230763;4235.51282052;4274.35897443;4238.97435898;5286.41025864;2171.28204691;-0.00000896;-0.00000896;3484.61538302;4141.41025621;4532.69230832;4303.20512835;4306.79487194;4270.38461546;4172.56410243;4205.12820506
4203.20512814;4234.23076923;4665.89743680;4238.84615385;5482.69231034;2170.38461101;229.99999153;-0.00000896;3479.23076764;4170.76923063;4038.07692266;4304.10256425;4536.66666730;4271.15384623;4172.17948704;4205.12820506
4206.28205122;4207.30769224;4832.17948843;4239.23076923;5349.87179724;2167.69230332;229.99999153;-0.00000896;3452.69230603;4142.17948697;4136.28205108;4302.43589758;3941.28205066;4273.07692315;4171.79487166;4205.12820506
4208.84615378;4205.76923070;4531.41025704;4241.15384616;5683.71795178;2140.51281607;229.99999153;-0.00000896;3452.05128039;4141.79487159;3714.87179376;4303.46153860;4602.82051359;4270.76923084;4172.82051269;4205.12820506
4236.53846154;4204.23076917;4174.99999986;4241.28205129;5488.71795136;2135.12820068;229.99999153;-0.00000896;3446.92307526;4143.46153826;3714.35897325;4306.15384630;4599.35897513;4270.89743597;4171.66666653;4237.94871795
4239.35897436;4203.84615378;4337.05128226;4241.66666667;5483.71795136;2105.89743138;-0.00000896;-0.00000896;3420.51281878;4140.25641005;4135.76923056;4302.56410271;4597.05128282;4272.56410264;4171.66666653;4237.94871795
4241.53846154;4201.79487173;4728.58974464;4266.66666674;5415.64102815;2104.99999549;-0.00000896;-0.00000896;3419.87179314;4136.79487159;3972.82051227;4301.02564117;4435.38461581;4271.92307700;4169.61538448;4237.94871795
4266.66666674;4201.02564096;4763.97436009;4268.84615392;5385.38461782;2100.51281600;-0.00000896;-0.00000896;3419.35897263;4138.58974339;3813.46153756;4302.05128219;4401.53846189;4271.53846161;4171.79487166;4270.76923084
4267.94871802;4174.99999986;5253.07692523;4269.74358982;5292.05128428;2073.58973901;-0.00000896;-0.00000896;3416.15384442;4107.94871767;3808.58974269;4301.41025655;4305.00000014;4272.56410264;4172.05128192;4270.76923084
4268.71794879;4174.61538448;5321.28205358;4269.48717956;5386.15384859;2069.61538003;-0.00000896;-0.00000896;3380.76922897;4105.89743562;3975.25640970;4303.84615399;3944.35897374;4271.02564110;4172.30769217;4270.76923084
4270.00000007;4174.10256397;4956.79487333;4270.89743597;5452.43590001;2067.82050824;-0.00000896;-0.00000896;3385.38461358;4105.38461511;4040.12820472;4303.20512835;4274.35897443;4269.74358982;4171.92307679;4270.76923084
4270.12820520;4173.71794858;5291.02564325;4270.51282059;5384.74359218;2040.51281586;-0.00000896;-0.00000896;3382.43589563;4077.30769196;3938.84615322;4302.94871809;4533.07692371;4272.17948725;4168.97435884;4270.76923084
4271.15384623;4172.43589730;5220.51282260;4269.35897443;5351.02564339;2068.84614926;-0.00000896;-0.00000896;3353.58974172;4072.56410222;3876.92307616;4303.33333348;4238.33333334;4271.66666674;4171.53846140;4270.76923084
4272.05128212;4173.07692294;5319.35897666;4270.64102571;5251.66666882;2069.99999542;-0.00000896;-0.00000896;3349.74358787;4044.10256369;3779.48717852;4302.05128219;4892.56410396;4271.53846161;4169.99999986;4270.76923084
4272.43589751;4175.25641012;5025.00000167;4267.17948725;5352.43589980;2074.10255952;-0.00000896;-0.00000896;3348.20512633;4070.89743555;3940.76923015;4302.05128219;4334.61538483;4272.82051289;4171.53846140;4270.76923084
4274.61538469;4201.79487173;5253.58974575;4240.76923077;5387.30769474;2074.23076465;-0.00000896;-0.00000896;3322.05128011;4042.43589702;3744.23076819;4304.23076937;4529.35897499;4273.20512828;4170.25641012;4270.76923084
4299.87179501;4204.87179481;5384.23077167;4237.94871795;5255.89743806;2105.89743138;-0.00000896;-0.00000896;3321.53845960;4042.05128164;3906.92307623;4303.20512835;4534.87179550;4273.07692315;4171.66666653;4303.58974373
4302.94871809;4207.82051275;5120.38461726;4236.02564103;5417.69231020;2107.69230318;-0.00000896;-0.00000896;3319.74358780;4040.76923036;3775.89743493;4303.97435912;4241.15384616;4272.43589751;4171.41025628;4303.58974373
4306.53846168;4237.05128206;5420.12820763;4235.64102564;5221.02564311;2136.15384171;-0.00000896;-0.00000896;3316.66666472;4042.17948677;4208.07692301;4301.92307707;4207.82051275;4272.05128212;4171.15384602;4303.58974373
4335.38461560;4240.38461539;4989.74359135;4234.23076923;5288.71795095;2140.64102120;-0.00000896;-0.00000896;3257.30769023;4038.84615343;4303.71794886;4302.56410271;4464.48717998;4272.30769238;4170.12820499;4336.41025662
4371.66666695;4272.05128212;4302.94871809;4208.20512814;5256.15384831;2205.12820082;-0.00000896;-0.00000896;3189.99999778;4042.17948677;4272.82051289;4304.87179501;3872.82051206;4272.30769238;4171.92307679;4369.23076951
4463.71794921;4306.66666681;5159.10256605;4234.74358975;5291.79487402;2235.89743166;-0.00000896;-0.00000896;3087.17948475;4074.10256376;4470.00000049;4303.46153860;4301.92307707;4273.97435905;4171.15384602;4467.69230818
4565.76923147;4371.28205156;4564.61538531;4237.43589744;5257.05128421;2238.46153423;-0.00000896;-0.00000896;2958.33333063;4074.61538427;4732.82051387;4304.74358989;4137.82051262;4273.84615392;4171.66666653;4566.15384685
4729.74359079;4438.20512863;3678.07692190;4240.51282052;5155.89743785;2205.12820082;-0.00000896;-0.00000896;2892.43589459;4108.71794844;5024.74359142;4304.74358989;4300.00000014;4271.53846161;4171.79487166;4730.25641130
4927.05128351;4503.97435953;3580.25640887;4274.23076930;5291.79487402;2168.20512383;-0.00000896;-0.00000896;2926.79486902;4140.12820492;5586.15384901;4304.23076937;3712.69230658;4271.28205136;4171.41025628;4927.17948864
5125.64102752;4566.15384685;3121.66666431;4336.41025662;5257.94872011;2135.76922633;-0.00000896;-0.00000896;2953.97435627;4176.28205115;6272.17949149;4303.58974373;3647.17948593;4300.64102578;4171.66666653;5124.23077111
5323.71795101;4629.87179571;3383.84615204;4403.20512856;5292.05128428;2138.71794427;-0.00000896;-0.00000896;2861.28204837;4235.64102564;6111.79487576;4332.82051303;3614.74358843;4300.12820527;4172.05128192;5321.15384845
5548.46154124;4696.02564200;3188.58974137;4470.25641075;5226.02564311;2133.33332889;-0.00000896;-0.00000896;2954.10256140;4302.05128219;5390.64102808;4303.33333348;3552.69230624;4300.64102578;4171.28205115;5551.02564381
5718.07692621;4731.28205233;3683.46153728;4562.43589813;5321.66666896;2105.25640574;-0.00000896;-0.00000896;3059.74358725;4304.74358989;5254.74359190;4306.15384630;3514.48717796;4274.10256418;4171.15384602;5715.12820826
5874.87179835;4761.79487291;1909.87178994;4629.10256494;5157.05128400;2167.43589306;-0.00000896;-0.00000896;3184.74358752;4332.30769252;5385.38461782;4301.79487194;3809.23076833;4305.38461553;4170.76923063;5879.35897784
5940.76923439;4765.00000112;2826.41025343;4665.89743680;5221.79487388;2268.20512404;229.99999153;-0.00000896;3217.94871580;4300.00000014;4073.84615350;4300.00000014;3676.02563985;4303.71794886;4172.05128192;5945.00000362
6011.02564478;4796.92307811;3157.43589515;4661.79487270;5420.12820763;2332.56409854;229.99999153;-0.00000896;3186.66666445;4271.15384623;891.28204420;4301.28205142;4301.92307707;4305.38461553;4169.99999986;6010.64102940
6013.33333709;4797.17948836;3709.87179376;4596.53846231;5089.48718130;2301.41025231;229.99999153;-0.00000896;3249.87179279;4270.12820520;1149.23076270;4273.07692315;4496.41025697;4306.28205142;4169.74358961;6010.64102940
5980.64102933;4792.17948836;2797.30768925;4464.74359023;5157.56410451;2232.94871371;229.99999153;-0.00000896;3387.94871615;4241.41025641;952.82050588;4301.15384630;5612.82051574;4332.56410278;4168.97435884;5977.69231138
5941.79487541;4760.51282163;5288.33333556;4368.58974387;5288.58974582;2173.58973922;131.41024773;-0.00000896;3452.82051116;4207.56410250;921.53845452;4300.38461553;5617.17949010;4305.38461553;4143.46153826;5944.74359336
5875.25641373;4727.56410361;4564.48718019;4338.97435919;5028.71795039;2170.51281614;101.66665792;-0.00000896;3483.33333174;4201.41025634;625.38460774;4272.30769238;5187.82051484;4333.97435919;4142.69230749;5879.10256758
5224.10256619;4536.66666730;5386.41025885;4270.38461546;4958.46153999;2205.89743159;229.99999153;-0.00000896;3776.53846057;3976.02564047;1973.97435418;4274.23076930;4828.33333459;4307.17948732;4139.87179467;5222.56410465
5089.23077104;4531.92307755;5645.38461838;4267.05128212;4865.38461671;2238.33332910;101.66665792;-0.00000896;3749.48717845;3945.76923015;1873.33332833;4300.12820527;5255.76923293;4334.10256431;4138.97435877;5091.28205309
4994.23077083;4533.07692371;5717.82051595;4268.20512828;5087.82051463;2271.41025224;229.99999153;-0.00000896;3715.76922966;3973.84615329;2042.30768766;4299.61538476;5481.15384880;4333.20512842;4139.35897415;4992.82051442
4892.69230909;4537.05128268;5481.92307957;4274.74358982;4865.25641158;2237.43589320;101.66665792;-0.00000896;3645.76922952;3979.10256355;2139.61538017;4271.53846161;5288.07692530;4333.84615406;4138.84615364;4894.35897575
4795.89743708;4562.94871865;5289.74359197;4274.35897443;4858.46153979;2139.99999556;229.99999153;-0.00000896;3617.17948586;4040.64102523;3418.33333160;4299.48717963;5127.30769419;4332.69230790;4138.71794851;4795.89743708
4726.41025746;4529.87179550;4761.41025753;4273.46153853;5057.43589918;2035.12820048;101.66665792;-0.00000896;3649.99999875;4043.33333292;4633.46153930;4272.56410264;5678.20513127;4335.00000021;4140.38461518;4730.25641130
4628.07692391;4466.28205177;4332.69230790;4272.94871802;5027.69230936;1942.94871309;229.99999153;-0.00000896;3648.33333209;4040.12820472;4988.84615545;4299.48717963;5286.28205351;4333.84615406;4140.51282031;4631.79487263
4530.76923140;4404.35897471;4731.02564207;4273.58974366;5088.71795053;1970.12820034;101.66665792;-0.00000896;3584.74358836;4010.12820465;3880.89743514;4300.00000014;5451.02564360;4334.48717970;4138.71794851;4533.33333396
4433.84615427;4367.82051310;5127.30769419;4272.17948725;5027.82051449;1974.10255931;229.99999153;-0.00000896;3517.43589591;3977.82051227;3418.97435724;4300.89743604;5356.79487416;4335.89743611;4139.10256390;4434.87179529
4338.97435919;4333.97435919;5219.61538670;4240.38461539;4958.07692461;2008.20512348;101.66665792;-0.00000896;3479.61538302;3973.07692252;5124.10256598;4274.23076930;5350.38461775;4332.94871816;4138.84615364;4336.41025662
4271.15384623;4302.94871809;4957.17948871;4208.58974352;4832.69230895;1972.56409777;229.99999153;-0.00000896;3451.92307526;3975.89743535;5023.84615552;4273.71794879;5714.87179800;4334.74358996;4137.94871774;4270.76923084
4206.53846147;4269.87179495;4895.38461678;4202.17948711;4894.87179627;1973.71794393;101.66665792;-0.00000896;3449.74358808;4004.23076875;4923.71795018;4273.58974366;5749.10256730;4333.46153867;4139.48717928;4205.12820506
4169.48717935;4237.30769231;5057.94871969;4201.53846147;5060.89743764;2008.84614912;229.99999153;-0.00000896;3387.30769050;3972.05128150;2927.30768953;4300.51282066;5614.61538754;4333.20512842;4138.84615364;4172.30769217
4140.51282031;4208.97435891;5220.89743799;4173.33333320;4989.87179647;2071.02563644;101.66665792;-0.00000896;3351.41025454;3911.41025572;3222.43589529;4301.41025655;5680.38461845;4334.23076944;4139.99999980;4139.35897415
4136.02564082;4206.15384609;5554.48718227;4170.12820499;4963.84615538;2172.17948281;229.99999153;-0.00000896;3318.07692114;3874.35897360;2926.53845876;4273.07692315;5616.15384908;4332.56410278;4137.30769210;4139.35897415
4135.64102544;4236.15384616;5519.10256682;4138.07692287;5027.56410424;2199.87179057;101.66665792;-0.00000896;3282.94871594;3845.64102481;2858.58974068;4273.71794879;5748.33333653;4335.00000021;4140.12820492;4139.35897415
4137.30769210;4266.92307700;5092.94871976;4110.64102537;4956.66666820;2106.41025190;229.99999153;-0.00000896;3316.02563908;3846.66666584;2893.07692023;4301.53846168;5685.64102870;4333.07692329;4139.74358954;4139.35897415
4139.35897415;4270.38461546;4668.58974450;4108.58974332;4798.07692426;2105.89743138;101.66665792;-0.00000896;3349.35897249;3848.07692225;2658.84615051;4299.87179501;5418.97436148;4332.56410278;4140.76923056;4139.35897415
4139.35897415;4272.69230777;4536.66666730;4107.30769203;4989.23077083;2137.82050838;229.99999153;-0.00000896;3354.10256223;3880.51281975;3974.48717894;4301.02564117;4863.07692440;4334.87179508;4140.38461518;4139.35897415
4136.66666646;4300.00000014;5055.00000174;4104.74358947;4926.15384762;2171.53845716;101.66665792;-0.00000896;3353.20512633;3910.25640957;4370.89743618;4300.12820527;4729.10256515;4306.66666681;4142.94871774;4139.35897415
4136.28205108;4303.07692322;4758.97436009;4073.97435863;5026.92307859;2203.71794441;229.99999153;-0.00000896;3354.35897249;3911.15384546;4634.74359058;4302.69230784;4597.05128282;4332.69230790;4141.15384595;4139.35897415
4110.64102537;4305.00000014;4334.10256431;4043.58974318;4831.41025766;2236.02563679;101.66665792;-0.00000896;3382.94871615;3941.92307630;6532.30769718;4272.56410264;4171.92307679;4305.89743604;4141.53846133;4106.41025614
4108.20512793;4334.23076944;4173.71794858;4008.58974311;4957.94871948;2267.17948301;229.99999153;-0.00000896;3382.43589563;3974.61538406;6570.76923571;4301.92307707;4072.30769196;4306.28205142;4141.02564082;4106.41025614
4107.82051255;4337.30769252;4039.74358933;3974.61538406;5087.69230950;2206.92307262;1.02563207;-0.00000896;3447.30769064;4005.64102516;6500.76923557;4299.74358989;3582.82051143;4305.00000014;4141.92307672;4106.41025614
4105.12820485;4337.05128226;4400.51282086;3940.12820451;5028.33333500;2137.30768786;-0.00000896;-0.00000896;3550.51281906;4038.71794830;6796.53846696;4303.20512835;3577.43589605;4304.61538476;4142.56410236;4106.41025614
4102.82051255;4335.51282073;4073.84615350;3912.94871726;4958.20512974;2105.38461087;134.23076055;-0.00000896;3649.48717824;4070.25640991;6928.71795442;4302.43589758;3317.82051088;4304.10256425;4141.28205108;4106.28205101
4073.07692273;4307.05128219;4535.51282114;3913.33333264;4925.64102710;2107.94871344;229.99999153;-0.00000896;3711.28205017;4043.07692266;6176.02564513;4301.28205142;3186.02563881;4305.12820527;4143.33333313;4073.46153812
4044.23076882;4305.00000014;4367.17948746;3942.82051220;5022.30769398;2107.69230318;229.99999153;-0.00000896;3743.71794768;4077.30769196;6111.41026037;4303.84615399;2498.20512453;4304.35897450;4168.33333320;4040.76923036
4041.28205087;4304.35897450;4500.76923133;3945.25640963;4929.10256557;2042.17948253;229.99999153;-0.00000896;3780.64102467;4108.20512793;6045.12820895;4301.53846168;2729.99999681;4302.69230784;4168.33333320;4040.76923036
4037.05128164;4301.92307707;4436.15384657;3976.02564047;4924.48718095;2036.41025176;229.99999153;-0.00000896;3809.23076833;4142.17948697;6239.35897860;4304.23076937;2630.25640686;4304.74358989;4168.97435884;4040.76923036
4008.84615336;4299.87179501;4500.38461594;4011.79487131;4994.35897596;1973.46153367;-0.00000896;-0.00000896;3781.15384518;4172.43589730;5845.38461879;4302.17948732;2597.69230422;4301.28205142;4143.07692287;4007.94871747
4006.92307644;4270.25641033;4435.25641068;4069.87179453;4831.79487305;1943.46153360;-0.00000896;-0.00000896;3779.10256313;4201.53846147;5383.97436141;4305.38461553;2496.15384247;4301.53846168;4169.99999986;4008.07692259
4005.38461490;4240.25641026;4499.10256466;4103.71794844;4960.00000153;1944.35896950;-0.00000896;-0.00000896;3743.58974255;4203.20512814;4629.23077007;4305.38461553;2265.38461122;4301.02564117;4168.97435884;4008.07692259
4005.12820465;4236.15384616;4634.23077007;4108.71794844;4927.56410403;1974.74358495;-0.00000896;-0.00000896;3710.89743479;4203.46153840;4500.89743646;4303.46153860;2239.48717525;4302.94871809;4170.38461525;4008.07692259
4007.05128157;4235.25641026;4825.00000125;4137.17948697;5055.38461713;2002.05127733;-0.00000896;-0.00000896;3679.61538344;4206.15384609;4043.71794830;4302.17948732;2565.38461184;4301.66666681;4170.12820499;4008.07692259
4007.43589695;4234.74358975;4799.10256529;4139.48717928;5061.15384789;2003.58973887;-0.00000896;-0.00000896;3683.33333216;4204.87179481;3191.53845932;4306.66666681;2597.30768884;4274.23076930;4170.38461525;4008.07692259
4008.07692259;4234.74358975;4463.71794921;4141.15384595;4763.20512932;2004.61537989;-0.00000896;-0.00000896;3709.87179376;4206.92307686;3185.12820291;4302.56410271;2593.58974012;4274.35897443;4172.82051269;4008.07692259
4008.07692259;4234.61538462;4299.87179501;4141.28205108;5095.12820694;2042.94871330;-0.00000896;-0.00000896;3681.53846036;4205.38461532;2860.12820221;4302.94871809;2822.56409958;4302.69230784;4171.02564089;4008.07692259
4009.99999952;4236.66666667;4335.25641047;4168.33333320;4763.71794983;2072.43589285;-0.00000896;-0.00000896;3643.97435773;4207.94871788;2891.41025357;4302.05128219;2499.10256042;4273.97435905;4171.28205115;4008.07692259
4038.58974318;4238.33333334;5220.25641234;4142.30769210;5060.38461713;2036.53845689;-0.00000896;-0.00000896;3617.17948586;4208.84615378;2987.30768967;4305.38461553;2699.10256084;4274.74358982;4171.41025628;4040.89743548
4043.20512779;4237.56410257;4106.66666639;4139.35897415;4864.48718081;1943.71794386;-0.00000896;-0.00000896;3682.69230651;4208.97435891;3027.43589487;4305.64102578;2855.51281760;4300.12820527;4172.05128192;4040.89743548
4069.74358940;4208.46153840;4038.07692266;4137.30769210;4962.17948871;1975.25640547;-0.00000896;-0.00000896;3742.17948614;4173.20512807;3020.25640769;4303.33333348;2764.48717636;4272.94871802;4171.15384602;4073.71794837
4070.64102530;4204.48717942;4169.10256397;4108.33333306;4897.94871934;2009.87179015;-0.00000896;-0.00000896;3742.43589640;4142.94871774;2694.35897110;4304.23076937;3026.28204871;4300.25641040;4172.05128192;4073.71794837
4072.17948684;4205.25641019;4365.64102592;4109.10256383;4993.07692468;2004.48717477;-0.00000896;-0.00000896;3747.30769127;4138.71794851;2888.58974074;4304.35897450;3020.89743333;4273.46153853;4170.51282038;4073.71794837
4075.76923043;4207.30769224;4627.94871879;4108.58974332;4864.23077055;2007.69230297;-0.00000896;-0.00000896;3782.05128108;4135.38461518;2862.94871503;4303.46153860;3150.76922848;4272.94871802;4172.30769217;4073.71794837
4076.02564068;4208.20512814;4435.25641068;4135.89743569;4858.71795004;2040.89743125;-0.00000896;-0.00000896;3814.10256320;4107.56410229;2759.35897124;4305.76923091;3156.66666438;4274.61538469;4170.64102551;4073.71794837
4103.07692280;4235.51282052;4467.05128254;4137.56410236;4828.71794997;2071.41025183;-0.00000896;-0.00000896;3811.53846064;4102.69230742;2990.25640762;4305.25641040;2891.92307408;4274.23076930;4172.82051269;4106.53846126
4104.87179460;4238.46153847;4533.84615448;4138.71794851;4693.71794969;2067.82050824;-0.00000896;-0.00000896;3814.87179397;4106.15384588;2727.69230450;4307.43589758;3186.28204906;4272.43589751;4172.94871781;4106.53846126
4106.41025614;4266.92307700;4826.53846279;4138.97435877;4793.71794990;2035.76922612;-0.00000896;-0.00000896;3874.61538385;4135.38461518;2795.64102259;4305.00000014;3221.41025426;4273.07692315;4173.58974345;4106.53846126
4106.53846126;4268.33333341;4858.20512953;4139.35897415;4890.51282191;2003.07691836;-0.00000896;-0.00000896;3879.23076847;4139.74358954;2858.33333042;4306.28205142;3386.66666486;4273.58974366;4173.71794858;4106.53846126
4105.25640998;4268.84615392;4336.66666688;4141.02564082;4765.89743701;1973.20512341;-0.00000896;-0.00000896;3906.41025572;4173.46153833;2828.33333035;4305.51282066;3644.10256286;4271.28205136;4173.33333320;4106.53846126
4103.71794844;4241.28205129;4534.87179550;4169.35897422;4931.15384762;1969.35896957;-0.00000896;-0.00000896;3910.38461469;4234.61538462;2894.35897151;4302.82051296;3415.25640852;4271.28205136;4174.23076910;4106.53846126
4076.53846119;4236.79487180;4398.58974394;4173.58974345;4699.23077021;1942.17948232;-0.00000896;-0.00000896;3912.30769162;4268.97435905;3257.05127997;4303.71794886;3584.48717810;4271.28205136;4173.71794858;4073.71794837
4073.71794837;4206.79487173;4535.38461601;4202.30769224;5027.94871962;2005.51281579;-0.00000896;-0.00000896;3911.28205059;4274.35897443;3415.51281878;4304.35897450;3417.82051109;4271.66666674;4174.61538448;4073.84615350
4044.35897395;4175.64102551;4497.56410312;4206.02564096;4859.61538594;2042.30768766;229.99999153;-0.00000896;3905.89743521;4241.41025641;3352.56410069;4305.76923091;3909.10256341;4272.05128212;4173.58974345;4041.02564061
4042.30769189;4173.46153833;4566.79487249;4205.89743583;4956.15384769;2103.20512369;-0.00000896;-0.00000896;3844.99999917;4238.46153847;3682.05128087;4304.35897450;3910.89743521;4272.82051289;4174.48717935;4041.02564061
4041.92307651;4176.15384602;4465.00000049;4206.02564096;4761.41025753;2105.51281600;-0.00000896;-0.00000896;3876.66666591;4236.28205129;3551.66666521;4304.23076937;4337.94871816;4268.97435905;4174.48717935;4041.02564061
4041.28205087;4205.38461532;4665.76923168;4202.43589737;4859.87179620;2101.28204677;34.23076034;-0.00000896;3913.71794803;4237.82051282;3711.66666556;4307.56410271;4438.46153888;4271.79487187;4175.12820499;4041.02564061
4036.92307651;4208.58974352;4635.51282135;4173.97435884;4828.33333459;2068.71794414;229.99999153;-0.00000896;3946.53846092;4270.64102571;3911.15384546;4305.51282066;4700.89743687;4271.66666674;4175.38461525;4040.89743548
4009.10256362;4235.38461539;4208.97435891;4171.41025628;4825.12820638;2039.48717484;229.99999153;-0.00000896;3973.97435842;4305.12820527;4668.07692398;4303.71794886;4266.79487187;4270.00000007;4174.99999986;4008.07692259
4006.53846106;4236.53846154;4273.46153853;4169.35897422;4864.61538594;1944.35896950;229.99999153;-0.00000896;3943.46153784;4366.41025669;4044.99999959;4305.38461553;3746.15384512;4270.25641033;4175.64102551;4008.07692259
4005.76923029;4235.38461539;4404.61538497;4142.43589723;4668.20512911;1876.02563603;229.99999153;-0.00000896;3940.38461476;4402.30769266;4664.35897527;4302.56410271;3912.82051213;4271.66666674;4175.64102551;4008.07692259
4006.92307644;4204.23076917;4301.79487194;4141.02564082;5025.76923244;1873.97435398;229.99999153;-0.00000896;3972.94871740;4435.89743632;4497.69230825;4302.17948732;3578.20512682;4271.92307700;4203.07692301;4008.07692259
4006.53846106;4142.82051262;4040.51282010;4137.17948697;4861.15384748;1940.89743104;229.99999153;-0.00000896;4006.66666618;4437.69230811;5251.66666882;4305.12820527;3905.89743521;4268.84615392;4175.76923063;4008.07692259
4006.79487131;4106.41025614;4171.28205115;4103.84615357;4959.87179640;1939.61537976;229.99999153;-0.00000896;4004.99999952;4463.84615434;5353.33333570;4306.66666681;3415.25640852;4270.00000007;4176.28205115;4008.07692259
4009.23076875;4072.17948684;4203.58974352;4074.48717914;4728.46153951;1873.20512321;229.99999153;-0.00000896;3979.23076868;4469.23076972;3251.53845946;4303.33333348;3513.84615232;4269.23076930;4201.41025634;4008.07692259
4011.66666618;4011.02564054;4267.43589751;4073.84615350;4761.15384727;1810.12819999;229.99999153;-0.00000896;4007.43589695;4498.07692364;3515.25640873;4307.43589758;3486.53845994;4267.94871802;4175.89743576;4008.07692259
4039.99999959;3973.84615329;4138.97435877;4104.61538434;4828.71794997;1808.71794358;229.99999153;-0.00000896;4008.33333285;4468.33333382;3481.53845994;4305.89743604;3449.99999834;4269.48717956;4175.64102551;4040.89743548
4044.87179446;3912.69230700;4268.71794879;4139.48717928;4958.07692461;1838.97435391;229.99999153;-0.00000896;4004.35897388;4437.82051324;3352.43589556;4303.20512835;3190.25640804;4268.84615392;4174.74358961;4040.89743548
4074.23076889;3879.74358898;4271.41025648;4174.61538448;4895.00000139;1905.12820020;229.99999153;-0.00000896;3975.25640970;4432.69230811;3250.12820305;4332.56410278;3086.92307449;4268.84615392;4174.74358961;4073.71794837
4077.05128171;3874.74358898;4434.23076965;4208.07692301;4766.53846265;1970.25640547;229.99999153;-0.00000896;3941.41025579;4405.64102599;3118.71794636;4305.76923091;3254.23076715;4268.46153853;4174.10256397;4073.84615350
