Gyro-X;Gyro-Z;AF3;Gyro-Y;T7;Acc-X;Pz;QualityData_1;QualityData_2;Acc-Z;Acc-Y;T8;Mag-X;AF4;Mag-Z;Mag-Y;Mag-X;Gyro-X 
4207.05128199;4201.66666660;4105.76923050;4238.20512821;4202.56410250;2202.94871364;229.99999153;-0.00000896;3254.48717741;4106.41025614;4205.64102558;4303.07692322;4372.17948746;4304.48717963;4172.43589730;4205.12820506
4208.07692301;4201.28205122;4469.35897485;4236.92307693;4629.35897520;2202.17948288;229.99999153;-0.00000896;3254.35897228;4106.41025614;4071.53846119;4301.92307707;4176.28205115;4304.87179501;4172.05128192;4205.12820506
4206.28205122;4201.41025634;3676.15384498;4236.92307693;4104.48717921;2201.02563672;229.99999153;-0.00000896;3255.64102356;4106.02564075;4038.33333292;4274.10256418;4041.02564061;4303.07692322;4172.30769217;4205.12820506
4205.64102558;4202.30769224;4862.94871927;4234.74358975;4760.38461650;2200.64102134;229.99999153;-0.00000896;3282.17948517;4107.43589716;4666.66666757;4301.15384630;4601.53846231;4302.94871809;4172.43589730;4205.12820506
4202.94871788;4176.15384602;3744.23076819;4236.79487180;4302.17948732;2199.23076493;229.99999153;-0.00000896;3283.84615183;4107.05128178;3815.12820423;4269.48717956;3973.84615329;4303.33333348;4171.02564089;4205.12820506
4201.66666660;4174.35897422;4267.17948725;4238.07692308;4633.84615468;2202.17948288;229.99999153;-0.00000896;3283.84615183;4105.38461511;4168.20512807;4300.12820527;3941.66666605;4305.12820527;4171.66666653;4205.12820506
4174.99999986;4173.20512807;3616.79487048;4239.10256411;4202.43589737;2203.58973929;229.99999153;-0.00000896;3282.30769030;4076.28205094;4009.23076875;4303.46153860;4076.02564068;4303.71794886;4172.82051269;4172.30769217
4173.58974345;4173.58974345;4761.66666778;4240.76923077;4858.97436030;2233.33332910;229.99999153;-0.00000896;3252.82051074;4075.64102530;4599.61538538;4303.20512835;4726.53846258;4303.58974373;4171.92307679;4172.30769217
4172.94871781;4174.48717935;3583.97435759;4239.87179488;4074.99999966;2205.89743159;229.99999153;-0.00000896;3250.51281843;4076.92307658;4039.23076882;4271.15384623;3907.69230700;4304.35897450;4170.76923063;4172.30769217
4173.58974345;4174.48717935;4270.12820520;4239.61538462;4469.35897485;2202.56409826;229.99999153;-0.00000896;3250.89743382;4077.56410222;4400.76923112;4274.48717956;4302.17948732;4303.58974373;4172.17948704;4172.30769217
4172.17948704;4175.89743576;4168.46153833;4239.10256411;4366.15384644;2201.79486749;229.99999153;-0.00000896;3223.84615170;4106.53846126;4173.58974345;4301.92307707;4168.58974345;4302.05128219;4171.92307679;4172.30769217
4173.58974345;4174.61538448;4695.51282149;4238.07692308;4796.79487298;2202.56409826;229.99999153;-0.00000896;3223.33333118;4074.87179453;4798.07692426;4300.64102578;4859.23077055;4305.38461553;4171.15384602;4172.30769217
4174.48717935;4174.99999986;3744.99999896;4238.07692308;4170.64102551;2203.84614954;229.99999153;-0.00000896;3249.23076715;4044.74358933;3877.69230693;4299.48717963;4037.82051241;4301.53846168;4172.05128192;4172.30769217
4175.38461525;4174.61538448;4569.61538531;4239.74358975;4924.10256557;2206.28204698;229.99999153;-0.00000896;3249.23076715;4075.12820478;4531.15384678;4300.25641040;4339.48717970;4303.97435912;4173.97435884;4172.30769217
4201.66666660;4174.87179474;4432.30769273;4238.46153847;4634.35897520;2206.53845723;229.99999153;-0.00000896;3222.82051067;4070.64102530;4267.56410264;4300.12820527;4695.76923175;4304.48717963;4172.05128192;4205.12820506
4202.56410250;4175.64102551;4333.20512842;4237.56410257;4402.69230804;2203.58973929;229.99999153;-0.00000896;3249.23076715;4072.56410222;4169.99999986;4299.48717963;4335.51282073;4304.61538476;4171.92307679;4205.12820506
4202.69230763;4202.17948711;3907.05128136;4237.17948718;4071.92307658;2206.02563672;229.99999153;-0.00000896;3219.35897221;4076.79487145;4076.41025607;4301.79487194;3906.41025572;4303.20512835;4171.92307679;4205.12820506
4204.23076917;4205.76923070;4700.12820610;4237.17948718;4602.43589820;2238.71794448;229.99999153;-0.00000896;3217.43589529;4076.28205094;4665.89743680;4299.74358989;4661.41025732;4304.23076937;4172.05128192;4205.12820506
4205.12820506;4234.10256411;4142.69230749;4241.02564103;4565.25641096;2265.64102148;229.99999153;-0.00000896;3217.69230554;4072.94871761;4398.46153881;4301.02564117;4201.41025634;4304.35897450;4171.92307679;4205.12820506
4204.48717942;4237.43589744;4698.58974457;4239.87179488;4635.25641109;2172.56409819;229.99999153;-0.00000896;3252.17948510;4074.99999966;4404.10256445;4301.79487194;4666.15384706;4305.38461553;4172.30769217;4205.12820506
4204.48717942;4235.12820513;4498.07692364;4239.10256411;5095.25641207;2167.56409819;229.99999153;-0.00000896;3284.74358773;4075.38461504;4926.66666813;4273.84615392;4698.58974457;4304.87179501;4172.05128192;4205.12820506
4201.15384609;4205.25641019;4043.33333292;4238.07692308;4534.61538524;2172.82050845;229.99999153;-0.00000896;3282.30769030;4077.05128171;3613.71794740;4300.51282066;3974.99999945;4304.23076937;4171.79487166;4205.12820506
4172.05128192;4202.56410250;4006.41025593;4236.53846154;4367.17948746;2200.64102134;229.99999153;-0.00000896;3253.84615177;4077.56410222;4370.00000028;4299.61538476;3939.87179425;4302.69230784;4171.28205115;4172.30769217
4172.05128192;4201.02564096;4529.87179550;4237.94871795;4766.28205240;2202.82050852;229.99999153;-0.00000896;3249.99999792;4103.33333306;3946.15384553;4301.66666681;4369.74359003;4304.10256425;4172.30769217;4172.30769217
4171.53846140;4201.79487173;4205.76923070;4238.07692308;4340.00000021;2205.25640595;229.99999153;-0.00000896;3220.76922862;4107.94871767;4627.69230853;4300.76923091;4238.58974359;4303.58974373;4171.92307679;4172.30769217
4173.33333320;4202.82051275;4369.61538490;4237.82051282;4468.58974408;2203.07691877;229.99999153;-0.00000896;3219.10256195;4105.25640998;4103.84615357;4301.79487194;4266.79487187;4304.10256425;4172.17948704;4172.30769217
4174.87179474;4201.79487173;4044.48717907;4238.71794872;4106.53846126;2201.66666236;229.99999153;-0.00000896;3222.56410041;4108.58974332;4339.87179508;4300.51282066;4043.71794830;4304.74358989;4172.05128192;4172.30769217
4176.28205115;4201.15384609;4565.51282121;4237.43589744;4498.07692364;2231.79486756;229.99999153;-0.00000896;3222.17948503;4102.94871767;4398.20512856;4300.89743604;4497.17948774;4303.84615399;4172.69230756;4172.30769217
4201.66666660;4201.28205122;3872.94871719;4235.25641026;4239.87179488;2233.46153423;229.99999153;-0.00000896;3217.69230554;4075.51282017;4302.94871809;4301.02564117;4007.43589695;4303.84615399;4171.02564089;4205.12820506
4205.12820506;4201.66666660;4108.58974332;4233.84615385;4399.87179522;2205.12820082;229.99999153;-0.00000896;3223.33333118;4075.76923043;4168.97435884;4301.28205142;4238.58974359;4305.25641040;4172.43589730;4205.12820506
4206.15384609;4201.28205122;4436.41025683;4234.48717949;4731.28205233;2231.79486756;229.99999153;-0.00000896;3224.23076708;4103.84615357;4498.33333389;4300.25641040;4365.12820541;4304.74358989;4172.30769217;4205.12820506
4206.41025634;4201.53846147;4205.64102558;4235.76923077;4205.51282045;2233.84614961;229.99999153;-0.00000896;3222.82051067;4076.53846119;3913.46153777;4301.79487194;4141.92307672;4304.48717963;4172.56410243;4205.12820506
4206.79487173;4201.66666660;4664.10256501;4236.02564103;4762.69230881;2232.82050859;-0.00000896;-0.00000896;3222.30769016;4073.20512786;4700.38461636;4302.05128219;4500.38461594;4303.71794886;4172.30769217;4205.12820506
4207.30769224;4201.41025634;4469.35897485;4236.53846154;4433.46153888;2204.10255980;8239.10257258;-0.00000896;3219.35897221;4076.53846119;4268.07692315;4299.87179501;4632.17948802;4305.00000014;4173.97435884;4205.12820506
4207.69230763;4203.20512814;4667.56410347;4235.00000000;5025.38461706;2233.58973935;229.99999153;-0.00000896;3221.02563888;4104.61538434;4991.15384776;4300.64102578;4400.76923112;4305.00000014;4172.56410243;4205.12820506
4208.97435891;4203.46153840;3910.64102495;4233.84615385;4367.69230797;2173.46153409;8239.10257258;-0.00000896;3251.92307484;4105.12820485;3413.58974186;4301.15384630;3874.48717873;4305.38461553;4172.56410243;4205.12820506
4208.46153840;4202.69230763;4601.15384692;4208.07692301;4563.07692378;2205.89743159;-0.00000896;-0.00000896;3249.35897228;4104.61538434;4728.07692412;4299.74358989;4404.35897471;4303.97435912;4171.53846140;4205.12820506
4208.71794865;4203.20512814;4233.84615385;4208.33333327;4202.94871788;2231.79486756;-0.00000896;-0.00000896;3250.12820305;4103.58974332;3872.82051206;4273.97435905;4202.30769224;4303.84615399;4173.97435884;4205.12820506
4208.84615378;4203.58974352;4039.35897395;4208.07692301;4333.84615406;2206.28204698;-0.00000896;-0.00000896;3249.48717741;4076.79487145;4398.84615420;4301.79487194;4306.15384630;4304.23076937;4172.30769217;4205.12820506
4207.69230763;4202.82051275;4008.46153798;4209.10256404;4235.25641026;2203.20512390;-0.00000896;-0.00000896;3251.02563894;4075.38461504;4139.74358954;4301.53846168;3973.20512765;4305.51282066;4173.97435884;4205.12820506
4207.30769224;4202.43589737;4764.23077035;4235.25641026;4765.64102676;2202.94871364;-0.00000896;-0.00000896;3250.25640818;4104.87179460;4925.76923223;4303.46153860;5090.76923258;4304.61538476;4172.17948704;4205.12820506
4206.15384609;4203.46153840;3779.74358877;4209.10256404;4406.02564138;2200.38461108;-0.00000896;-0.00000896;3251.53845946;4106.79487152;3847.43589661;4301.92307707;3842.05128122;4305.25641040;4172.82051269;4205.12820506
4206.66666660;4201.92307686;3776.15384518;4233.97435898;4172.69230756;2206.66666236;-0.00000896;-0.00000896;3250.64102356;4075.64102530;3776.66666570;4302.05128219;4037.43589702;4304.74358989;4172.17948704;4205.12820506
4205.64102558;4203.84615378;4273.46153853;4208.97435891;4694.74359072;2203.46153416;-0.00000896;-0.00000896;3251.79486971;4076.66666632;4300.38461553;4301.53846168;4072.69230735;4303.07692322;4172.56410243;4205.12820506
4206.28205122;4204.23076917;4142.69230749;4207.82051275;4467.17948767;2199.10255980;-0.00000896;-0.00000896;3252.56410048;4074.99999966;4011.41025593;4301.02564117;4137.43589723;4305.00000014;4170.89743576;4205.12820506
4205.51282045;4204.48717942;4239.23076923;4234.61538462;4761.28205240;2199.74358544;-0.00000896;-0.00000896;3253.20512612;4104.48717921;4071.79487145;4301.66666681;4241.15384616;4303.58974373;4172.69230756;4205.12820506
4206.28205122;4204.35897429;4011.92307644;4236.41025641;4433.71794914;2201.15384185;-0.00000896;-0.00000896;3252.82051074;4103.84615357;3842.56410173;4301.28205142;4175.12820499;4304.61538476;4172.56410243;4205.12820506
4205.64102558;4203.20512814;3912.56410187;4236.28205129;4009.10256362;2202.69230339;-0.00000896;-0.00000896;3249.35897228;4103.46153819;3974.10256355;4273.20512828;3614.74358843;4305.64102578;4172.43589730;4205.12820506
4205.51282045;4203.97435891;4237.69230770;4238.20512821;4565.25641096;2206.41025211;-0.00000896;-0.00000896;3223.20512605;4102.69230742;4334.87179508;4300.38461553;4530.38461601;4303.46153860;4172.94871781;4205.12820506
4206.15384609;4205.51282045;4077.05128171;4239.35897436;4170.12820499;2234.61538038;-0.00000896;-0.00000896;3219.99999785;4103.97435870;4401.15384651;4300.12820527;3807.94871705;4303.58974373;4172.17948704;4205.12820506
4207.30769224;4208.71794865;4598.20512897;4240.25641026;4891.28205268;2234.23076500;-0.00000896;-0.00000896;3218.46153631;4074.23076889;4335.38461560;4300.64102578;4700.64102662;4303.58974373;4172.56410243;4205.12820506
4207.43589737;4236.53846154;3977.94871740;4267.56410264;4399.61538497;2204.35897005;-0.00000896;-0.00000896;3222.56410041;4103.58974332;4070.51282017;4301.92307707;4011.53846106;4305.25641040;4172.56410243;4205.12820506
4206.02564096;4209.10256404;4269.35897443;4240.89743590;4268.07692315;2173.97435460;-0.00000896;-0.00000896;3223.97435682;4104.99999973;4168.58974345;4301.02564117;4270.76923084;4303.71794886;4172.56410243;4205.12820506
4203.07692301;4208.20512814;4006.02564054;4238.97435898;4434.23076965;2200.38461108;-0.00000896;-0.00000896;3249.74358766;4135.76923056;4142.56410236;4300.25641040;4074.74358940;4305.64102578;4172.56410243;4205.12820506
4202.05128199;4203.97435891;4237.69230770;4236.02564103;4601.79487256;2206.92307262;-0.00000896;-0.00000896;3250.25640818;4107.82051255;4136.15384595;4301.41025655;4142.69230749;4303.97435912;4171.28205115;4205.12820506
4176.15384602;4203.71794865;4825.51282177;4234.74358975;4402.56410292;2233.33332910;-0.00000896;-0.00000896;3221.02563888;4107.43589716;4797.30769349;4302.05128219;4930.00000146;4303.97435912;4173.84615371;4172.30769217
4175.51282038;4202.82051275;3680.51281934;4209.10256404;4434.23076965;2205.25640595;-0.00000896;-0.00000896;3222.30769016;4077.30769196;4073.07692273;4301.53846168;3971.53846099;4304.10256425;4172.17948704;4172.30769217
4176.15384602;4203.33333327;4365.64102592;4234.48717949;4661.92307783;2206.92307262;-0.00000896;-0.00000896;3223.46153631;4106.53846126;4302.94871809;4300.89743604;4142.05128185;4303.84615399;4172.82051269;4172.30769217
4201.53846147;4203.84615378;4338.97435919;4233.84615385;4759.74359086;2205.51281621;-0.00000896;-0.00000896;3222.82051067;4108.07692280;4826.28205254;4301.66666681;4597.94871872;4304.61538476;4172.69230756;4205.12820506
4201.02564096;4203.33333327;4106.15384588;4235.12820513;4537.30769294;2200.64102134;-0.00000896;-0.00000896;3250.76922869;4108.20512793;4005.64102516;4301.15384630;4141.28205108;4304.74358989;4173.84615371;4205.12820506
4201.15384609;4202.94871788;4532.17948781;4209.10256404;4792.17948836;2200.51281621;229.99999153;-0.00000896;3251.92307484;4109.87179460;4531.41025704;4303.07692322;4634.10256494;4305.25641040;4172.30769217;4205.12820506
4201.15384609;4201.41025634;4338.46153867;4234.48717949;4760.89743701;2204.61538031;229.99999153;-0.00000896;3223.97435682;4108.46153819;4043.58974318;4302.43589758;4203.33333327;4303.97435912;4172.82051269;4205.12820506
4201.41025634;4201.41025634;4300.51282066;4236.02564103;4693.84615482;2204.87179057;229.99999153;-0.00000896;3221.53845939;4108.97435870;4238.46153847;4303.84615399;4435.38461581;4304.35897450;4172.56410243;4205.12820506
4203.20512814;4202.05128199;4859.87179620;4236.15384616;4925.12820659;2203.33332903;229.99999153;-0.00000896;3221.66666452;4109.74358947;4503.58974415;4300.51282066;4501.02564159;4303.46153860;4172.56410243;4205.12820506
4204.74358968;4201.41025634;4009.35897388;4237.94871795;4595.25641102;2205.12820082;-0.00000896;-0.00000896;3220.25640811;4109.10256383;3913.07692239;4301.53846168;3842.82051199;4305.51282066;4172.69230756;4205.12820506
4205.38461532;4202.56410250;4565.38461608;4238.33333334;4597.82051359;2201.66666236;-0.00000896;-0.00000896;3222.82051067;4137.05128185;4434.74359016;4301.79487194;4597.94871872;4303.97435912;4169.48717935;4205.12820506
4206.28205122;4202.05128199;3944.61538399;4238.71794872;4562.69230839;2204.23076493;229.99999153;-0.00000896;3218.71794657;4110.64102537;4533.46153909;4300.38461553;4138.97435877;4303.46153860;4171.92307679;4205.12820506
4205.25641019;4202.94871788;4043.97435856;4238.84615385;4468.84615434;2232.82050859;-0.00000896;-0.00000896;3218.97435682;4135.76923056;4335.51282073;4301.53846168;4105.51282024;4305.64102578;4172.94871781;4205.12820506
4204.87179481;4203.58974352;4206.66666660;4237.43589744;4471.53846203;2235.76922653;229.99999153;-0.00000896;3219.10256195;4107.69230742;4272.43589751;4303.20512835;4037.05128164;4303.97435912;4172.05128192;4205.12820506
4204.87179481;4204.87179481;4467.17948767;4236.41025641;4634.74359058;2233.84614961;-0.00000896;-0.00000896;3220.51281836;4106.53846126;4531.53846217;4302.82051296;4667.56410347;4303.97435912;4172.69230756;4205.12820506
4204.74358968;4203.07692301;4563.20512890;4235.64102564;4731.66666771;2205.12820082;229.99999153;-0.00000896;3220.51281836;4103.46153819;4532.94871858;4301.53846168;4634.48718032;4303.84615399;4170.25641012;4205.12820506
4205.76923070;4202.43589737;4332.69230790;4235.00000000;4860.76923209;2206.79486749;-0.00000896;-0.00000896;3218.97435682;4102.56410229;4404.61538497;4302.56410271;4365.38461567;4302.94871809;4172.69230756;4205.12820506
4204.61538455;4202.94871788;4336.66666688;4236.15384616;4727.05128310;2206.66666236;229.99999153;-0.00000896;3218.84615170;4104.61538434;4273.07692315;4300.00000014;4207.94871788;4306.53846168;4172.69230756;4205.12820506
4203.71794865;4204.10256404;4103.07692280;4235.89743590;4339.87179508;2206.28204698;-0.00000896;-0.00000896;3222.17948503;4110.38461511;4272.69230777;4300.51282066;4338.33333355;4305.38461553;4172.94871781;4205.12820506
4202.94871788;4203.71794865;3906.02564033;4236.41025641;4471.15384664;2202.94871364;229.99999153;-0.00000896;3221.66666452;4110.64102537;4076.28205094;4300.12820527;4043.33333292;4304.23076937;4172.69230756;4205.12820506
4203.20512814;4202.82051275;4368.97435926;4236.15384616;4829.10256536;2202.94871364;-0.00000896;-0.00000896;3223.33333118;4104.99999973;4237.17948718;4299.48717963;4269.74358982;4304.48717963;4172.69230756;4205.12820506
4201.79487173;4201.53846147;3780.76922980;4234.23076923;4274.23076930;2233.71794448;229.99999153;-0.00000896;3222.30769016;4104.23076896;4136.02564082;4300.64102578;3942.94871733;4304.35897450;4172.43589730;4205.12820506
4201.15384609;4202.30769224;4008.71794824;4235.12820513;4404.61538497;2205.51281621;-0.00000896;-0.00000896;3220.76922862;4107.82051255;4303.84615399;4273.97435905;4172.82051269;4305.38461553;4172.69230756;4205.12820506
4176.28205115;4202.05128199;4171.66666653;4234.35897436;4371.28205156;2204.23076493;229.99999153;-0.00000896;3218.33333118;4136.79487159;4010.25640977;4300.12820527;4143.33333313;4304.23076937;4172.56410243;4172.30769217
4202.17948711;4202.94871788;3878.07692232;4235.38461539;4466.79487229;2203.71794441;-0.00000896;-0.00000896;3220.51281836;4110.51282024;4010.25640977;4302.17948732;3648.20512696;4304.35897450;4173.20512807;4205.12820506
4202.56410250;4203.46153840;3613.71794740;4236.02564103;4202.05128199;2203.84614954;229.99999153;-0.00000896;3218.71794657;4137.56410236;4038.84615343;4301.41025655;4009.74358926;4303.58974373;4172.56410243;4205.12820506
4203.58974352;4202.30769224;4205.76923070;4237.05128206;4403.97435933;2203.20512390;-0.00000896;-0.00000896;3220.76922862;4110.64102537;4201.79487173;4299.48717963;3977.17948663;4303.84615399;4172.43589730;4205.12820506
4202.94871788;4202.30769224;4370.38461567;4236.28205129;4766.02564214;2206.92307262;229.99999153;-0.00000896;3222.69230554;4109.74358947;4398.20512856;4302.17948732;4597.94871872;4302.69230784;4172.94871781;4205.12820506
4203.07692301;4201.15384609;3714.10256299;4237.30769231;4203.84615378;2235.38461115;-0.00000896;-0.00000896;3218.97435682;4105.12820485;3807.30769141;4301.41025655;3841.53846071;4305.12820527;4169.61538448;4205.12820506
4203.58974352;4202.30769224;4433.46153888;4236.28205129;4726.28205233;2207.05127775;229.99999153;-0.00000896;3219.35897221;4106.41025614;4205.38461532;4302.69230784;4008.84615336;4303.84615399;4172.69230756;4205.12820506
4203.97435891;4201.79487173;3746.53846050;4235.64102564;4499.87179543;2204.48717518;-0.00000896;-0.00000896;3218.84615170;4105.89743562;4142.43589723;4274.61538469;4103.71794844;4303.58974373;4169.87179474;4205.12820506
4203.07692301;4202.17948711;4400.51282086;4235.00000000;4629.74359058;2204.74358544;229.99999153;-0.00000896;3218.97435682;4106.41025614;4007.30769183;4299.74358989;3909.61538392;4303.58974373;4172.43589730;4205.12820506
4203.71794865;4202.69230763;3746.15384512;4234.35897436;4141.41025621;2202.82050852;-0.00000896;-0.00000896;3218.71794657;4104.87179460;3613.84615253;4299.61538476;3945.51281989;4302.94871809;4172.05128192;4205.12820506
4203.33333327;4202.56410250;3942.94871733;4234.61538462;4497.82051338;2206.92307262;229.99999153;-0.00000896;3219.61538247;4106.02564075;3813.97435807;4301.28205142;4070.25640991;4304.74358989;4172.56410243;4205.12820506
4204.61538455;4202.43589737;3814.48717859;4234.23076923;4401.66666702;2232.43589320;-0.00000896;-0.00000896;3219.35897221;4105.64102537;3938.97435835;4303.33333348;3749.23076819;4303.97435912;4172.56410243;4205.12820506
4204.10256404;4203.84615378;3975.89743535;4234.10256411;4469.87179536;2203.33332903;229.99999153;-0.00000896;3219.74358759;4109.87179460;4076.66666632;4302.05128219;4305.12820527;4303.58974373;4174.10256397;4205.12820506
4204.23076917;4204.10256404;4532.82051345;4234.10256411;4893.33333473;2206.15384185;-0.00000896;-0.00000896;3222.94871580;4109.87179460;4629.61538545;4273.71794879;4274.48717956;4304.61538476;4172.82051269;4205.12820506
4203.84615378;4203.33333327;3909.87179418;4235.00000000;4597.56410333;2202.94871364;229.99999153;-0.00000896;3220.89743375;4109.99999973;4077.43589709;4302.69230784;3810.12820423;4305.12820527;4172.82051269;4205.12820506
4203.58974352;4202.17948711;4241.15384616;4235.38461539;4563.33333403;2232.30768807;-0.00000896;-0.00000896;3221.15384400;4109.74358947;4205.25641019;4274.23076930;4401.79487215;4303.07692322;4172.69230756;4205.12820506
4202.05128199;4202.94871788;4696.28205226;4235.76923077;5288.33333556;2206.28204698;-0.00000896;-0.00000896;3222.17948503;4108.20512793;4794.87179606;4300.38461553;4599.87179564;4303.46153860;4172.82051269;4205.12820506
4202.17948711;4203.84615378;4074.87179453;4235.38461539;4467.69230818;2232.69230346;-0.00000896;-0.00000896;3222.17948503;4108.84615357;3945.25640963;4302.30769245;4203.71794865;4303.20512835;4172.82051269;4205.12820506
4202.30769224;4204.23076917;4109.23076896;4236.41025641;4269.35897443;2233.97435474;229.99999153;-0.00000896;3223.71794657;4108.33333306;3911.79487110;4299.74358989;4044.61538420;4302.43589758;4173.07692294;4205.12820506
4176.02564089;4205.51282045;3913.71794803;4235.76923077;4333.33333355;2233.84614961;229.99999153;-0.00000896;3220.38461323;4108.33333306;3938.71794810;4301.28205142;4241.53846154;4302.82051296;4173.20512807;4172.30769217
4176.28205115;4204.87179481;4137.69230749;4234.23076923;4334.35897457;2205.76922646;229.99999153;-0.00000896;3220.89743375;4110.51282024;4203.97435891;4300.89743604;4039.61538420;4303.97435912;4172.94871781;4172.30769217
4201.28205122;4204.99999993;3682.69230651;4235.25641026;4535.51282114;2232.69230346;229.99999153;-0.00000896;3220.76922862;4138.58974339;4043.46153805;4303.20512835;3909.48717880;4303.46153860;4173.07692294;4205.12820506
4202.05128199;4205.51282045;4141.79487159;4235.64102564;4563.46153916;2206.02563672;-0.00000896;-0.00000896;3221.79486964;4140.25641005;3978.58974304;4303.07692322;3774.48717852;4303.46153860;4171.66666653;4205.12820506
4202.17948711;4204.74358968;3974.99999945;4236.28205129;4628.33333417;2203.71794441;-0.00000896;-0.00000896;3221.28204913;4136.92307672;3977.05128150;4300.12820527;3712.05128094;4303.97435912;4174.23076910;4205.12820506
4202.05128199;4202.82051275;4070.51282017;4235.76923077;4570.12820583;2201.79486749;-0.00000896;-0.00000896;3222.69230554;4135.51282031;3879.74358898;4301.53846168;3808.33333243;4304.48717963;4172.94871781;4205.12820506
4201.66666660;4201.66666660;4269.23076930;4235.89743590;4336.28205149;2206.79486749;-0.00000896;-0.00000896;3219.74358759;4110.38461511;4010.76923029;4302.94871809;4333.33333355;4302.30769245;4171.02564089;4205.12820506
4202.30769224;4202.05128199;3972.05128150;4236.41025641;4597.05128282;2204.61538031;-0.00000896;-0.00000896;3217.30769016;4138.20512800;4174.48717935;4273.71794879;4303.33333348;4303.71794886;4173.07692294;4205.12820506
4202.82051275;4202.17948711;3979.35897381;4237.56410257;4471.02564152;2206.53845723;-0.00000896;-0.00000896;3218.20512605;4108.84615357;3938.84615322;4299.74358989;3708.84615274;4303.71794886;4173.58974345;4205.12820506
4202.43589737;4201.53846147;3385.12820333;4237.30769231;4102.69230742;2204.61538031;-0.00000896;-0.00000896;3219.35897221;4135.38461518;3975.12820458;4299.48717963;3447.30769064;4305.51282066;4172.17948704;4205.12820506
4201.66666660;4201.28205122;3943.33333271;4236.79487180;4271.92307700;2207.05127775;-0.00000896;-0.00000896;3218.46153631;4110.51282024;3748.58974255;4299.74358989;3682.69230651;4305.38461553;4174.23076910;4205.12820506
4201.66666660;4201.41025634;3716.53846043;4236.15384616;4143.46153826;2231.92307269;-0.00000896;-0.00000896;3218.20512605;4109.23076896;3454.23076757;4299.87179501;3546.53846008;4304.10256425;4173.33333320;4205.12820506
4202.17948711;4201.92307686;3581.66666528;4233.97435898;3715.12820402;2206.02563672;-0.00000896;-0.00000896;3218.46153631;4135.64102544;3316.28204934;4274.61538469;3322.05128011;4304.23076937;4172.82051269;4205.12820506
4203.20512814;4202.69230763;3647.05128080;4208.20512814;4432.82051324;2234.35897012;-0.00000896;-0.00000896;3219.87179272;4138.46153826;3978.46153791;4302.56410271;3872.82051206;4301.66666681;4172.82051269;4205.12820506
4203.20512814;4202.69230763;3518.07692155;4207.69230763;3840.76922994;2231.79486756;-0.00000896;-0.00000896;3222.05127990;4137.82051262;3453.97435731;4301.15384630;3582.94871656;4302.69230784;4171.66666653;4205.12820506
4204.23076917;4202.43589737;3584.99999861;4207.69230763;4202.69230763;2234.61538038;-0.00000896;-0.00000896;3220.25640811;4106.66666639;3381.02563922;4300.76923091;3643.97435773;4301.92307707;4173.20512807;4205.12820506
4202.82051275;4201.53846147;4076.41025607;4209.10256404;4076.15384581;2231.79486756;-0.00000896;-0.00000896;3219.61538247;4108.97435870;3646.53846029;4301.92307707;3913.58974290;4303.97435912;4173.33333320;4205.12820506
4204.87179481;4202.05128199;4267.30769238;4234.23076923;4531.41025704;2232.56409833;-0.00000896;-0.00000896;3219.48717734;4108.07692280;4203.20512814;4300.51282066;4504.35897492;4304.61538476;4174.48717935;4205.12820506
4206.15384609;4202.05128199;4136.02564082;4234.48717949;4466.28205177;2204.23076493;-0.00000896;-0.00000896;3218.97435682;4137.69230749;4209.10256404;4302.43589758;4174.10256397;4305.00000014;4173.20512807;4205.12820506
4206.66666660;4202.05128199;4859.87179620;4235.38461539;4765.76923188;2203.33332903;-0.00000896;-0.00000896;3220.12820298;4136.28205108;4633.20512904;4301.92307707;4499.74359030;4304.48717963;4171.02564089;4205.12820506
4206.02564096;4204.10256404;4075.51282017;4234.48717949;4269.23076930;2203.33332903;-0.00000896;-0.00000896;3222.05127990;4140.38461518;4072.17948684;4303.07692322;4373.20512849;4304.35897450;4173.33333320;4205.12820506
4207.17948711;4202.43589737;4401.92307727;4234.10256411;4405.89743625;2232.56409833;-0.00000896;-0.00000896;3222.56410041;4137.94871774;4463.84615434;4274.35897443;4465.00000049;4302.82051296;4173.33333320;4205.12820506
4208.07692301;4202.82051275;3977.69230714;4208.84615378;4435.51282093;2206.02563672;-0.00000896;-0.00000896;3224.10256195;4141.02564082;4438.58974401;4303.07692322;4269.48717956;4305.89743604;4172.94871781;4205.12820506
4206.66666660;4202.69230763;4138.84615364;4208.97435891;4431.41025683;2205.25640595;-0.00000896;-0.00000896;3223.84615170;4140.25641005;4140.64102544;4273.71794879;3744.99999896;4303.84615399;4172.43589730;4205.12820506
4207.17948711;4203.07692301;4303.07692322;4233.97435898;4661.79487270;2204.87179057;-0.00000896;-0.00000896;3223.46153631;4107.30769203;4336.66666688;4301.28205142;4267.69230777;4303.07692322;4172.82051269;4205.12820506
4206.28205122;4203.46153840;3912.17948649;4234.35897436;4463.71794921;2205.64102134;-0.00000896;-0.00000896;3250.64102356;4110.51282024;4040.76923036;4301.66666681;3975.64102509;4303.33333348;4173.33333320;4205.12820506
4205.51282045;4203.97435891;4307.17948732;4234.35897436;4206.02564096;2199.48717518;-0.00000896;-0.00000896;3223.58974144;4135.51282031;4335.64102585;4303.07692322;4267.56410264;4305.38461553;4173.33333320;4205.12820506
4204.48717942;4203.46153840;4628.20512904;4234.61538462;4830.51282177;2199.10255980;229.99999153;-0.00000896;3222.17948503;4142.17948697;4630.64102648;4300.25641040;4662.56410347;4301.92307707;4173.46153833;4205.12820506
4204.10256404;4202.17948711;3913.46153777;4235.38461539;4233.84615385;2200.76922646;35.89742701;-0.00000896;3220.89743375;4143.20512800;4272.69230777;4300.89743604;4004.74358926;4302.69230784;4170.51282038;4205.12820506
4204.48717942;4202.82051275;4470.64102613;4234.61538462;4762.94871906;2203.33332903;37.17947829;-0.00000896;3221.15384400;4138.46153826;4731.79487284;4301.92307707;4795.00000119;4303.33333348;4173.46153833;4205.12820506
4203.84615378;4202.82051275;4369.23076951;4236.02564103;4602.56410333;2203.97435467;-0.00000896;-0.00000896;3222.82051067;4108.46153819;4104.35897408;4303.20512835;4207.69230763;4304.10256425;4173.07692294;4205.12820506
4204.23076917;4202.56410250;4175.64102551;4235.51282052;4371.02564131;2231.79486756;229.99999153;-0.00000896;3221.79486964;4110.38461511;4236.92307693;4274.61538469;4405.89743625;4302.30769245;4173.07692294;4205.12820506
4204.10256404;4203.58974352;4766.28205240;4236.15384616;4632.30769315;2206.66666236;229.99999153;-0.00000896;3223.46153631;4110.51282024;4501.53846210;4300.89743604;4857.69230902;4304.23076937;4173.33333320;4205.12820506
4203.46153840;4203.84615378;4008.71794824;4208.58974352;4403.97435933;2202.69230339;229.99999153;-0.00000896;3221.79486964;4107.43589716;4074.87179453;4302.69230784;3911.53846085;4303.58974373;4173.20512807;4205.12820506
4203.20512814;4204.48717942;4467.05128254;4207.69230763;4172.94871781;2200.51281621;229.99999153;-0.00000896;3220.64102349;4137.56410236;4761.92307804;4299.61538476;4466.79487229;4305.25641040;4173.46153833;4205.12820506
4204.74358968;4203.58974352;4302.05128219;4207.43589737;4662.30769321;2204.61538031;229.99999153;-0.00000896;3221.79486964;4140.64102544;4339.23076944;4299.74358989;4399.23076958;4302.94871809;4173.07692294;4205.12820506
4205.12820506;4203.46153840;4044.61538420;4206.92307686;4437.43589786;2203.84614954;229.99999153;-0.00000896;3223.07692093;4139.10256390;4369.35897464;4301.66666681;4234.10256411;4304.10256425;4172.56410243;4205.12820506
4205.64102558;4203.71794865;4070.76923043;4234.74358975;4372.69230797;2200.51281621;229.99999153;-0.00000896;3252.17948510;4110.64102537;4040.51282010;4303.07692322;3840.25640943;4304.35897450;4172.82051269;4205.12820506
4205.38461532;4203.84615378;4143.33333313;4235.51282052;4400.38461574;2204.35897005;229.99999153;-0.00000896;3222.82051067;4135.64102544;4005.51282003;4300.76923091;4238.71794872;4306.28205142;4173.33333320;4205.12820506
4205.89743583;4203.07692301;3879.61538385;4235.64102564;4302.30769245;2206.02563672;229.99999153;-0.00000896;3220.38461323;4135.38461518;3813.97435807;4273.71794879;4044.99999959;4303.97435912;4171.02564089;4205.12820506
4205.64102558;4202.56410250;4107.94871767;4235.38461539;4301.28205142;2232.94871371;229.99999153;-0.00000896;3222.56410041;4110.38461511;4077.56410222;4301.79487194;4071.53846119;4304.48717963;4173.71794858;4205.12820506
4205.51282045;4204.35897429;4272.30769238;4235.38461539;4332.56410278;2202.82050852;229.99999153;-0.00000896;3250.38461330;4139.99999980;4138.33333313;4302.69230784;4371.15384644;4303.71794886;4173.58974345;4205.12820506
4205.38461532;4202.43589737;4040.76923036;4234.23076923;4140.89743569;2202.69230339;229.99999153;-0.00000896;3254.61538253;4141.79487159;4205.38461532;4300.38461553;4141.66666646;4303.33333348;4173.33333320;4205.12820506
4205.51282045;4201.92307686;4436.79487222;4235.51282052;4596.02564179;2234.23076500;229.99999153;-0.00000896;3251.41025433;4139.10256390;4601.66666743;4300.64102578;4726.92307797;4305.25641040;4173.20512807;4205.12820506
4205.12820506;4203.97435891;4399.35897471;4235.51282052;4531.15384678;2233.84614961;229.99999153;-0.00000896;3251.66666459;4140.38461518;4338.58974380;4303.58974373;4205.51282045;4305.89743604;4173.46153833;4205.12820506
4206.02564096;4203.20512814;4040.76923036;4235.51282052;4599.74359051;2202.82050852;229.99999153;-0.00000896;3252.56410048;4108.97435870;4300.89743604;4302.82051296;4077.82051248;4303.33333348;4172.69230756;4205.12820506
4204.10256404;4202.56410250;4136.02564082;4237.05128206;4399.23076958;2200.25640595;229.99999153;-0.00000896;3252.82051074;4140.76923056;3945.64102502;4301.28205142;4172.43589730;4305.25641040;4173.20512807;4205.12820506
4203.97435891;4201.28205122;4332.43589765;4236.53846154;4207.17948711;2202.43589313;229.99999153;-0.00000896;3249.35897228;4137.30769210;4497.17948774;4299.87179501;4437.82051324;4303.58974373;4173.33333320;4205.12820506
4203.97435891;4201.92307686;4040.89743548;4238.58974359;4207.82051275;2204.61538031;229.99999153;-0.00000896;3221.15384400;4109.10256383;4139.61538441;4301.66666681;4268.71794879;4304.74358989;4173.20512807;4205.12820506
4204.48717942;4202.43589737;4075.76923043;4238.33333334;4208.46153840;2202.94871364;229.99999153;-0.00000896;3222.43589529;4139.23076903;4338.97435919;4301.02564117;4207.94871788;4304.48717963;4172.30769217;4205.12820506
4205.25641019;4202.82051275;4307.56410271;4237.69230770;4398.97435933;2201.53845723;229.99999153;-0.00000896;3221.41025426;4136.79487159;4176.15384602;4274.10256418;4206.92307686;4304.87179501;4173.07692294;4205.12820506
4204.10256404;4202.94871788;4369.35897464;4237.69230770;4431.92307734;2203.07691877;229.99999153;-0.00000896;3221.79486964;4137.43589723;4176.02564089;4274.61538469;4468.71794921;4304.35897450;4173.07692294;4205.12820506
4203.84615378;4203.97435891;4006.66666618;4237.94871795;4143.46153826;2204.74358544;229.99999153;-0.00000896;3221.02563888;4138.58974339;4204.35897429;4299.61538476;4334.10256431;4304.10256425;4172.30769217;4205.12820506
4203.71794865;4202.94871788;3749.23076819;4236.28205129;4207.05128199;2204.61538031;229.99999153;-0.00000896;3220.89743375;4139.35897415;4108.33333306;4274.61538469;3906.92307623;4305.76923091;4173.07692294;4205.12820506
4202.94871788;4203.84615378;4272.56410264;4236.02564103;4300.51282066;2231.79486756;229.99999153;-0.00000896;3220.25640811;4139.10256390;4172.82051269;4301.66666681;4070.25640991;4303.84615399;4174.10256397;4205.12820506
4203.58974352;4203.33333327;4206.66666660;4235.25641026;4468.58974408;2233.33332910;229.99999153;-0.00000896;3218.58974144;4139.48717928;4207.82051275;4301.02564117;4373.07692336;4304.87179501;4172.69230756;4205.12820506
4202.17948711;4203.46153840;3975.12820458;4236.41025641;4137.30769210;2233.20512397;229.99999153;-0.00000896;3219.61538247;4136.15384595;4271.79487187;4300.12820527;4174.74358961;4305.64102578;4172.56410243;4205.12820506
4204.10256404;4204.10256404;4597.94871872;4236.28205129;4469.35897485;2204.74358544;229.99999153;-0.00000896;3219.99999785;4135.76923056;4369.74359003;4274.35897443;4762.17948830;4305.38461553;4172.82051269;4205.12820506
4203.84615378;4203.71794865;4205.25641019;4235.38461539;4435.38461581;2232.17948294;229.99999153;-0.00000896;3220.89743375;4107.82051255;4306.92307707;4300.12820527;4173.71794858;4304.23076937;4172.82051269;4205.12820506
4204.48717942;4203.20512814;4431.53846196;4236.28205129;4499.87179543;2206.66666236;229.99999153;-0.00000896;3221.02563888;4137.30769210;4372.56410285;4300.64102578;4631.53846238;4303.20512835;4173.33333320;4205.12820506
4205.51282045;4204.23076917;3942.05128143;4235.38461539;4170.76923063;2203.97435467;229.99999153;-0.00000896;3222.82051067;4142.69230749;4203.07692301;4300.76923091;4138.84615364;4304.48717963;4172.69230756;4205.12820506
4206.53846147;4201.92307686;4369.74359003;4233.84615385;4368.58974387;2204.10255980;229.99999153;-0.00000896;3223.46153631;4143.20512800;4238.33333334;4302.56410271;4470.51282100;4304.48717963;4172.43589730;4205.12820506
4206.02564096;4176.15384602;4533.46153909;4235.12820513;4827.17948843;2233.33332910;229.99999153;-0.00000896;3220.38461323;4140.25641005;4435.38461581;4302.43589758;4433.58974401;4303.46153860;4172.82051269;4205.12820506
4205.76923070;4201.53846147;4170.12820499;4236.15384616;4470.76923126;2206.53845723;229.99999153;-0.00000896;3222.43589529;4135.64102544;4336.66666688;4274.74358982;4270.76923084;4306.15384630;4174.61538448;4205.12820506
4206.92307686;4176.28205115;3808.33333243;4237.05128206;4204.10256404;2231.92307269;36.02563214;-0.00000896;3223.58974144;4139.48717928;4239.87179488;4299.87179501;3939.23076861;4304.48717963;4173.58974345;4205.12820506
4206.15384609;4176.28205115;4634.10256494;4238.84615385;4366.66666695;2205.51281621;4.61537566;-0.00000896;3249.48717741;4137.17948697;4764.35897547;4300.64102578;4961.66666820;4303.46153860;4171.02564089;4205.12820506
4205.51282045;4201.28205122;3775.25640929;4237.43589744;4306.28205142;2205.64102134;229.99999153;-0.00000896;3223.46153631;4136.92307672;4140.12820492;4299.87179501;4004.99999952;4302.30769245;4172.94871781;4205.12820506
4204.74358968;4175.89743576;4337.69230790;4237.94871795;4467.05128254;2204.61538031;4.61537566;-0.00000896;3221.79486964;4137.43589723;4368.33333362;4300.12820527;4500.51282107;4305.38461553;4173.33333320;4205.12820506
4204.87179481;4175.64102551;4598.07692385;4237.69230770;4436.53846196;2232.30768807;-0.00000896;-0.00000896;3219.48717734;4109.10256383;4370.25641054;4302.30769245;4303.84615399;4302.69230784;4173.20512807;4205.12820506
4205.89743583;4174.35897422;4109.48717921;4237.56410257;4597.17948795;2206.02563672;-0.00000896;-0.00000896;3218.97435682;4109.61538434;4174.74358961;4274.61538469;4366.92307720;4303.46153860;4172.05128192;4205.12820506
4206.02564096;4176.15384602;3682.43589626;4237.56410257;4039.61538420;2232.56409833;-0.00000896;-0.00000896;3220.89743375;4168.33333320;4234.10256411;4273.84615392;4008.84615336;4303.97435912;4172.94871781;4205.12820506
4206.02564096;4201.53846147;4633.46153930;4237.56410257;4534.61538524;2232.05127782;-0.00000896;-0.00000896;3221.53845939;4135.64102544;4434.74359016;4302.43589758;4893.20512960;4307.05128219;4173.07692294;4205.12820506
4206.15384609;4201.41025634;4240.25641026;4237.43589744;4468.20512870;2205.38461108;-0.00000896;-0.00000896;3222.69230554;4138.84615364;4267.94871802;4300.12820527;4040.89743548;4303.97435912;4173.20512807;4205.12820506
4205.25641019;4175.76923063;4204.74358968;4238.97435898;4465.25641075;2205.89743159;-0.00000896;-0.00000896;3221.02563888;4136.28205108;4201.41025634;4301.66666681;4597.56410333;4304.48717963;4172.82051269;4205.12820506
4205.25641019;4175.12820499;3976.02564047;4239.23076923;4176.15384602;2203.33332903;-0.00000896;-0.00000896;3220.51281836;4135.51282031;4141.92307672;4304.23076937;4006.41025593;4302.43589758;4174.10256397;4205.12820506
4205.51282045;4174.99999986;3873.33333257;4239.61538462;4438.33333375;2234.23076500;-0.00000896;-0.00000896;3219.23076708;4140.51282031;4272.69230777;4302.17948732;4271.41025648;4303.97435912;4172.82051269;4205.12820506
4205.89743583;4175.89743576;3879.87179411;4239.87179488;4073.33333299;2233.71794448;-0.00000896;-0.00000896;3217.82051067;4137.30769210;4006.66666618;4302.17948732;4141.66666646;4305.76923091;4173.20512807;4205.12820506
4205.89743583;4201.66666660;4234.87179488;4238.71794872;4340.12820534;2232.43589320;-0.00000896;-0.00000896;3219.35897221;4138.84615364;4333.33333355;4274.74358982;4201.66666660;4304.10256425;4172.82051269;4205.12820506
4206.53846147;4176.02564089;4340.25641047;4239.74358975;4697.43589841;2206.02563672;-0.00000896;-0.00000896;3218.07692093;4136.53846133;4268.97435905;4300.89743604;4138.20512800;4303.20512835;4174.99999986;4205.12820506
4206.02564096;4175.12820499;4136.53846133;4239.61538462;4104.99999973;2232.94871371;-0.00000896;-0.00000896;3220.38461323;4136.15384595;3847.94871712;4299.61538476;4138.07692287;4304.61538476;4173.07692294;4205.12820506
4205.89743583;4176.28205115;4040.89743548;4240.89743590;4533.46153909;2207.05127775;-0.00000896;-0.00000896;3219.61538247;4136.53846133;3874.23076847;4300.25641040;4169.61538448;4303.46153860;4173.07692294;4205.12820506
4205.25641019;4201.28205122;3944.48717887;4240.89743590;4431.92307734;2236.28204705;-0.00000896;-0.00000896;3218.84615170;4108.33333306;3845.12820430;4301.41025655;3974.99999945;4304.35897450;4172.56410243;4205.12820506
4205.51282045;4176.28205115;4470.89743639;4240.12820513;4339.48717970;2234.74358551;-0.00000896;-0.00000896;3217.56410041;4135.38461518;4401.41025676;4301.66666681;4766.41025753;4304.35897450;4170.38461525;4205.12820506
4205.12820506;4175.38461525;4500.89743646;4239.61538462;4531.28205191;2203.71794441;-0.00000896;-0.00000896;3189.99999778;4108.97435870;4532.56410319;4300.25641040;4562.82051352;4307.56410271;4172.69230756;4205.12820506
4205.38461532;4174.99999986;3611.15384484;4240.12820513;4174.23076910;2232.05127782;-0.00000896;-0.00000896;3187.43589522;4107.94871767;4267.94871802;4300.00000014;4043.58974318;4305.51282066;4173.07692294;4205.12820506
4207.17948711;4175.25641012;4272.43589751;4240.89743590;4667.30769321;2206.15384185;-0.00000896;-0.00000896;3187.82051060;4107.43589716;4042.30769189;4301.79487194;3912.30769162;4303.97435912;4170.76923063;4205.12820506
4206.41025634;4201.15384609;3979.35897381;4240.89743590;4307.56410271;2203.84614954;-0.00000896;-0.00000896;3216.79486964;4108.58974332;4143.07692287;4302.05128219;4040.25640984;4305.25641040;4172.69230756;4205.12820506
4205.25641019;4201.41025634;4236.92307693;4239.61538462;4663.20512911;2204.61538031;-0.00000896;-0.00000896;3217.17948503;4105.89743562;4299.48717963;4301.28205142;4037.05128164;4306.41025655;4172.82051269;4205.12820506
4203.71794865;4176.28205115;4435.00000042;4238.20512821;4398.58974394;2234.99999577;-0.00000896;-0.00000896;3190.38461316;4110.12820485;4170.51282038;4301.28205142;4300.12820527;4305.12820527;4172.69230756;4205.12820506
4202.82051275;4175.76923063;4400.12820548;4239.74358975;4332.30769252;2232.05127782;-0.00000896;-0.00000896;3186.79486958;4105.64102537;4204.61538455;4299.61538476;4398.84615420;4305.64102578;4172.94871781;4205.12820506
4203.07692301;4175.89743576;4169.61538448;4238.71794872;4103.71794844;2236.53845730;-0.00000896;-0.00000896;3185.12820291;4137.17948697;4234.74358975;4301.53846168;4402.69230804;4303.58974373;4172.69230756;4205.12820506
4203.97435891;4176.28205115;3908.46153777;4238.46153847;4208.58974352;2207.05127775;-0.00000896;-0.00000896;3184.48717727;4107.94871767;4239.10256411;4300.64102578;3978.20512765;4303.84615399;4173.07692294;4205.12820506
4204.10256404;4202.17948711;4172.17948704;4239.23076923;4372.05128233;2234.48717525;229.99999153;-0.00000896;3185.25640804;4106.41025614;4106.53846126;4301.15384630;4110.64102537;4304.87179501;4172.30769217;4205.12820506
4204.23076917;4202.82051275;4534.74359037;4237.69230770;4925.51282198;2206.66666236;229.99999153;-0.00000896;3185.76922855;4108.07692280;4759.23077035;4302.05128219;4633.20512904;4304.87179501;4172.43589730;4205.12820506
4203.84615378;4203.58974352;4074.99999966;4237.82051282;4205.25641019;2234.48717525;229.99999153;-0.00000896;3188.07692086;4109.87179460;3943.58974297;4299.87179501;4011.79487131;4303.71794886;4172.56410243;4205.12820506
4203.07692301;4203.07692301;4433.20512863;4238.58974359;4896.41025780;2237.94871371;229.99999153;-0.00000896;3188.33333111;4106.28205101;4597.94871872;4299.87179501;4569.35897506;4303.33333348;4171.66666653;4205.12820506
4203.58974352;4201.92307686;4468.33333382;4237.69230770;4405.12820548;2236.53845730;5.64101668;-0.00000896;3188.07692086;4108.71794844;4299.87179501;4300.76923091;4368.07692336;4304.35897450;4172.69230756;4205.12820506
4203.58974352;4175.51282038;4171.15384602;4237.69230770;4368.33333362;2238.20512397;66.53845272;-0.00000896;3186.66666445;4108.20512793;4107.43589716;4300.00000014;4399.74359009;4303.33333348;4172.82051269;4205.12820506
4204.61538455;4175.51282038;4826.41025766;4238.58974359;4733.20512925;2265.64102148;229.99999153;-0.00000896;3187.05127983;4104.87179460;4438.84615427;4274.35897443;4858.20512953;4306.66666681;4171.53846140;4205.12820506
4203.97435891;4176.02564089;3976.41025586;4237.30769231;4504.35897492;2267.17948301;66.53845272;-0.00000896;3186.79486958;4077.82051248;3841.02564020;4299.61538476;4238.07692308;4304.61538476;4173.07692294;4205.12820506
4203.20512814;4204.10256404;4300.25641040;4237.94871795;4237.05128206;2239.35897012;229.99999153;-0.00000896;3187.43589522;4074.10256376;4171.66666653;4300.12820527;4366.66666695;4304.10256425;4173.20512807;4205.12820506
4201.79487173;4205.12820506;4009.35897388;4237.05128206;4272.82051289;2234.23076500;66.53845272;-0.00000896;3188.46153624;4077.82051248;4168.84615371;4302.82051296;4141.66666646;4303.84615399;4172.56410243;4205.12820506
4201.66666660;4205.89743583;4667.05128296;4236.79487180;4858.07692440;2235.25640602;229.99999153;-0.00000896;3187.69230547;4105.38461511;4569.61538531;4301.92307707;4667.56410347;4305.76923091;4172.56410243;4205.12820506
4201.28205122;4204.87179481;4008.84615336;4237.30769231;4368.33333362;2234.48717525;66.53845272;-0.00000896;3188.84615163;4108.97435870;4105.76923050;4300.00000014;4208.20512814;4303.71794886;4172.82051269;4205.12820506
4201.53846147;4204.23076917;4825.12820638;4237.43589744;4761.79487291;2234.23076500;229.99999153;-0.00000896;3186.28204906;4109.61538434;4664.23077014;4299.87179501;4667.30769321;4305.51282066;4172.82051269;4205.12820506
4203.07692301;4203.20512814;4170.51282038;4239.10256411;4567.94871865;2233.58973935;66.53845272;-0.00000896;3152.69230540;4142.69230749;4039.74358933;4300.89743604;4272.17948725;4305.89743604;4172.94871781;4205.12820506
4204.35897429;4203.20512814;4498.58974415;4240.00000000;4404.61538497;2235.12820089;229.99999153;-0.00000896;3190.64102342;4135.76923056;4338.33333355;4300.00000014;4437.56410298;4303.97435912;4173.07692294;4205.12820506
4204.35897429;4201.28205122;4011.15384567;4267.30769238;4302.69230784;2239.10255987;66.53845272;-0.00000896;3155.12820284;4109.87179460;4237.17948718;4300.00000014;4073.33333299;4305.76923091;4170.64102551;4205.12820506
4204.87179481;4201.53846147;4038.71794830;4241.28205129;4337.82051303;2236.92307269;229.99999153;-0.00000896;3158.58974130;4106.53846126;4173.84615371;4273.97435905;4273.84615392;4305.12820527;4172.30769217;4205.12820506
4203.46153840;4201.92307686;3978.97435842;4239.35897436;4107.69230742;2239.61538038;66.53845272;-0.00000896;3183.58974137;4109.74358947;4333.84615406;4299.87179501;4038.20512779;4305.64102578;4172.17948704;4205.12820506
4202.69230763;4201.28205122;4661.15384706;4236.79487180;4799.35897554;2265.25640609;229.99999153;-0.00000896;3158.33333104;4108.20512793;4599.61538538;4300.00000014;4667.17948809;4306.02564117;4172.82051269;4205.12820506
4203.46153840;4202.05128199;4663.46153937;4236.02564103;4956.79487333;2235.64102141;66.53845272;-0.00000896;3184.87179265;4137.05128185;4795.76923195;4274.74358982;4925.00000146;4305.89743604;4171.41025628;4205.12820506
4204.61538455;4201.28205122;5023.97436065;4235.25641026;4861.15384748;2238.20512397;229.99999153;-0.00000896;3158.58974130;4137.30769210;4993.97436058;4273.84615392;4959.87179640;4303.84615399;4172.43589730;4205.12820506
4204.87179481;4202.05128199;4630.12820597;4236.41025641;4468.97435946;2235.76922653;66.53845272;-0.00000896;3157.94871566;4110.25640998;4602.82051359;4300.25641040;4628.84615468;4303.71794886;4173.46153833;4205.12820506
4205.76923070;4176.28205115;5122.43589932;4237.56410257;5223.07692517;2235.64102141;229.99999153;-0.00000896;3184.61538240;4136.28205108;5089.23077104;4301.79487194;5257.69230985;4305.25641040;4172.69230756;4205.12820506
4206.15384609;4175.76923063;4595.00000077;4238.71794872;4693.33333431;2233.84614961;66.53845272;-0.00000896;3185.51281829;4109.10256383;4497.94871851;4300.38461553;4694.48718046;4306.02564117;4169.61538448;4205.12820506
4205.89743583;4175.76923063;4007.17948670;4240.51282052;4237.94871795;2237.05127782;229.99999153;-0.00000896;3184.74358752;4107.69230742;4335.51282073;4300.38461553;4334.10256431;4306.53846168;4172.94871781;4205.12820506
4205.76923070;4209.10256404;3550.38461393;4238.20512821;3778.58974262;2237.17948294;66.53845272;-0.00000896;3158.33333104;4104.48717921;3812.30769141;4301.15384630;3483.84615225;4306.66666681;4172.94871781;4205.12820506
4205.25641019;4201.53846147;2502.43589376;4238.07692308;2567.56409902;2238.20512397;229.99999153;-0.00000896;3156.53845925;4102.69230742;2534.61538101;4301.53846168;2566.79486825;4305.12820527;4172.17948704;4205.12820506
4204.99999993;4202.43589737;3124.61538226;4238.33333334;3092.82051039;2237.05127782;66.53845272;-0.00000896;3155.12820284;4105.51282024;2795.38461233;4302.82051296;3023.20512564;4306.15384630;4172.05128192;4205.12820506
4204.35897429;4202.17948711;2921.79486902;4237.17948718;3319.48717755;2238.71794448;229.99999153;-0.00000896;3154.61538233;4106.66666639;3285.38461337;4273.97435905;3059.23076673;4306.66666681;4169.74358961;4205.12820506
4203.71794865;4203.07692301;3546.79487034;4236.28205129;3780.12820416;2238.07691884;66.53845272;-0.00000896;3154.48717720;4109.23076896;3387.56410076;4300.12820527;3319.10256216;4307.05128219;4172.43589730;4205.12820506
4203.71794865;4203.20512814;3416.92307519;4236.79487180;3972.43589688;2264.87179071;229.99999153;-0.00000896;3156.02563874;4105.51282024;3907.43589674;4299.87179501;3577.94871656;4305.51282066;4172.82051269;4205.12820506
4203.46153840;4202.82051275;3844.74358891;4236.28205129;3645.51281927;2264.61538045;66.53845272;-0.00000896;3157.82051053;4104.99999973;3482.30769071;4300.12820527;3839.99999917;4305.89743604;4172.82051269;4205.12820506
4204.74358968;4202.56410250;3616.53846022;4235.76923077;4042.69230728;2234.10255987;229.99999153;-0.00000896;3184.87179265;4103.46153819;3613.46153715;4274.61538469;3480.51281892;4304.35897450;4173.58974345;4205.12820506
4203.20512814;4202.17948711;3877.94871719;4236.02564103;3878.20512744;2237.69230346;-0.00000896;-0.00000896;3158.58974130;4107.43589716;3676.53846036;4274.61538469;3814.35897346;4305.38461553;4172.17948704;4205.12820506
4203.84615378;4202.56410250;3880.51281975;4235.64102564;4201.53846147;2239.74358551;-0.00000896;-0.00000896;3155.76922848;4104.87179460;4267.94871802;4274.23076930;4173.71794858;4305.51282066;4172.94871781;4205.12820506
4204.61538455;4203.58974352;3848.07692225;4236.28205129;4237.69230770;2236.79486756;-0.00000896;-0.00000896;3157.30769002;4110.25640998;4204.10256404;4300.25641040;3648.46153721;4306.79487194;4172.56410243;4205.12820506
4204.87179481;4204.23076917;4240.00000000;4235.64102564;4372.05128233;2234.48717525;229.99999153;-0.00000896;3158.33333104;4136.92307672;4074.99999966;4274.23076930;4432.94871837;4304.61538476;4170.76923063;4205.12820506
4204.48717942;4202.94871788;3811.41025551;4235.64102564;3940.12820451;2236.79486756;229.99999153;-0.00000896;3186.15384393;4109.61538434;3742.82051178;4302.69230784;3748.33333229;4306.53846168;4172.43589730;4205.12820506
4204.35897429;4201.66666660;4402.69230804;4236.02564103;4204.35897429;2239.74358551;229.99999153;-0.00000896;3184.48717727;4106.02564075;4201.92307686;4300.51282066;4532.17948781;4305.38461553;4172.82051269;4205.12820506
4202.69230763;4201.66666660;4204.48717942;4235.64102564;4701.41025739;2239.35897012;229.99999153;-0.00000896;3157.56410027;4109.99999973;4301.79487194;4300.38461553;4037.05128164;4306.79487194;4172.69230756;4205.12820506
4203.07692301;4202.56410250;3979.23076868;4236.15384616;4136.41025621;2239.48717525;-0.00000896;-0.00000896;3183.84615163;4109.61538434;4367.94871823;4274.10256418;4139.10256390;4306.28205142;4172.56410243;4205.12820506
4203.46153840;4202.30769224;4238.71794872;4237.82051282;4302.05128219;2265.38461122;-0.00000896;-0.00000896;3158.58974130;4107.30769203;4168.20512807;4301.02564117;4241.15384616;4305.38461553;4173.33333320;4205.12820506
4203.33333327;4203.58974352;4206.79487173;4237.82051282;4272.69230777;2237.05127782;-0.00000896;-0.00000896;3158.84615156;4107.30769203;4039.99999959;4302.30769245;4338.07692329;4305.38461553;4172.69230756;4205.12820506
4203.07692301;4203.71794865;4402.05128240;4239.61538462;4337.30769252;2236.92307269;-0.00000896;-0.00000896;3154.99999771;4107.69230742;4135.51282031;4299.48717963;4437.69230811;4305.89743604;4172.82051269;4205.12820506
4203.20512814;4202.69230763;4202.94871788;4239.23076923;4732.17948823;2264.61538045;-0.00000896;-0.00000896;3155.38461310;4109.35897408;4398.46153881;4302.69230784;4006.41025593;4305.00000014;4172.43589730;4205.12820506
4203.71794865;4201.66666660;4171.53846140;4237.69230770;4241.15384616;2264.87179071;-0.00000896;-0.00000896;3153.71794643;4105.89743562;4076.79487145;4273.46153853;4238.07692308;4303.46153860;4176.15384602;4205.12820506
4203.33333327;4201.28205122;4272.69230777;4237.82051282;4434.74359016;2265.12820096;-0.00000896;-0.00000896;3155.51281822;4105.76923050;4336.53846175;4299.61538476;4370.76923105;4304.74358989;4172.43589730;4205.12820506
4204.23076917;4202.05128199;4372.17948746;4236.66666667;4203.33333327;2239.10255987;-0.00000896;-0.00000896;3154.87179258;4105.12820485;4306.92307707;4301.53846168;4399.10256445;4306.66666681;4172.43589730;4205.12820506
4203.07692301;4202.82051275;4139.35897415;4237.56410257;4631.79487263;2239.35897012;-0.00000896;-0.00000896;3154.23076694;4109.35897408;4398.97435933;4300.12820527;4208.97435891;4307.17948732;4172.30769217;4205.12820506
4203.97435891;4202.94871788;4431.66666709;4237.17948718;4405.12820548;2265.38461122;-0.00000896;-0.00000896;3155.25640797;4109.61538434;4267.56410264;4300.25641040;4303.97435912;4304.61538476;4171.28205115;4205.12820506
4204.99999993;4203.84615378;4138.97435877;4237.05128206;4272.69230777;2239.48717525;-0.00000896;-0.00000896;3154.48717720;4108.84615357;3938.46153784;4301.15384630;4102.94871767;4304.48717963;4172.82051269;4205.12820506
4204.99999993;4203.46153840;4270.25641033;4236.66666667;4205.25641019;2238.84614961;-0.00000896;-0.00000896;3155.64102335;4107.82051255;4270.76923084;4300.38461553;4270.12820520;4305.76923091;4172.69230756;4205.12820506
4204.23076917;4202.69230763;4300.64102578;4236.41025641;4634.61538545;2238.07691884;-0.00000896;-0.00000896;3157.05127976;4108.33333306;4270.76923084;4299.61538476;4137.17948697;4305.38461553;4173.46153833;4205.12820506
4204.87179481;4201.79487173;4205.25641019;4234.87179488;4533.46153909;2238.97435474;-0.00000896;-0.00000896;3156.28204899;4108.46153819;4727.05128310;4274.23076930;4402.94871830;4306.28205142;4172.05128192;4205.12820506
4204.10256404;4201.15384609;4566.53846224;4236.15384616;4497.17948774;2239.48717525;-0.00000896;-0.00000896;3155.25640797;4108.84615357;4006.66666618;4273.84615392;4501.66666723;4305.25641040;4172.43589730;4205.12820506
4204.35897429;4202.17948711;4365.25641054;4236.41025641;4699.61538559;2238.20512397;-0.00000896;-0.00000896;3153.71794643;4107.94871767;4496.66666723;4300.76923091;4108.20512793;4304.74358989;4173.07692294;4205.12820506
4205.12820506;4202.17948711;4368.20512849;4237.05128206;4598.58974436;2237.82050859;-0.00000896;-0.00000896;3158.71794643;4107.43589716;4628.84615468;4274.48717956;4467.43589793;4305.12820527;4172.69230756;4205.12820506
4203.20512814;4201.79487173;4102.56410229;4238.97435898;4600.51282128;2239.87179064;-0.00000896;-0.00000896;3157.17948489;4109.61538434;4137.82051262;4300.64102578;3813.20512731;4306.92307707;4172.69230756;4205.12820506
4203.84615378;4201.28205122;4399.61538497;4237.05128206;4269.87179495;2238.71794448;-0.00000896;-0.00000896;3155.25640797;4138.33333313;4307.56410271;4300.25641040;4661.02564193;4305.51282066;4172.56410243;4205.12820506
4204.61538455;4175.25641012;4464.48717998;4237.43589744;4504.10256466;2265.64102148;-0.00000896;-0.00000896;3153.71794643;4138.20512800;4302.43589758;4301.28205142;4463.84615434;4306.02564117;4172.56410243;4205.12820506
4203.71794865;4201.66666660;4405.12820548;4237.69230770;4434.48717991;2239.23076500;-0.00000896;-0.00000896;3153.20512592;4104.87179460;4365.64102592;4300.51282066;4531.79487242;4332.43589765;4172.56410243;4205.12820506
4203.97435891;4202.43589737;4697.94871893;4236.02564103;4662.69230860;2264.61538045;-0.00000896;-0.00000896;3154.48717720;4104.35897408;4433.71794914;4299.74358989;4468.07692357;4306.92307707;4172.69230756;4205.12820506
4204.74358968;4202.30769224;4405.00000035;4236.15384616;4434.10256452;2238.46153423;-0.00000896;-0.00000896;3156.41025412;4108.20512793;4236.02564103;4302.94871809;4334.74358996;4305.25641040;4172.56410243;4205.12820506
4204.48717942;4201.15384609;4141.15384595;4237.17948718;4470.64102613;2237.82050859;-0.00000896;-0.00000896;3155.51281822;4110.38461511;4530.38461601;4300.25641040;4366.53846182;4306.28205142;4173.07692294;4205.12820506
4204.35897429;4201.41025634;4107.56410229;4236.53846154;4142.43589723;2238.84614961;229.99999153;-0.00000896;3155.25640797;4103.20512793;4070.51282017;4301.28205142;4365.89743618;4306.28205142;4172.43589730;4205.12820506
4203.20512814;4176.15384602;4370.89743618;4237.69230770;4400.38461574;2238.84614961;-0.00000896;-0.00000896;3153.46153617;4103.20512793;4433.20512863;4274.61538469;4434.87179529;4332.69230790;4172.82051269;4205.12820506
4203.33333327;4202.30769224;4011.02564054;4236.79487180;4240.76923077;2264.87179071;-0.00000896;-0.00000896;3153.33333104;4107.56410229;4176.15384602;4272.94871802;4304.48717963;4306.28205142;4172.43589730;4205.12820506
4204.48717942;4202.69230763;4700.25641123;4236.79487180;4667.43589834;2237.69230346;-0.00000896;-0.00000896;3153.46153617;4106.66666639;4109.23076896;4300.00000014;4533.20512883;4305.25641040;4172.69230756;4205.12820506
4203.20512814;4202.69230763;3971.53846099;4238.20512821;4208.58974352;2265.38461122;229.99999153;-0.00000896;3152.56410027;4108.33333306;4465.64102613;4273.71794879;4268.07692315;4305.25641040;4172.69230756;4205.12820506
4202.82051275;4202.94871788;4437.05128247;4238.20512821;4764.10256522;2265.12820096;229.99999153;-0.00000896;3152.43589515;4106.92307665;4371.66666695;4299.74358989;4073.97435863;4306.28205142;4172.69230756;4205.12820506
4203.71794865;4203.07692301;4174.74358961;4238.33333334;4438.33333375;2265.64102148;229.99999153;-0.00000896;3153.33333104;4109.99999973;4533.58974422;4299.61538476;4398.97435933;4306.28205142;4172.30769217;4205.12820506
4203.84615378;4203.20512814;4368.20512849;4237.17948718;4529.23076986;2265.51281635;229.99999153;-0.00000896;3152.17948489;4105.51282024;4398.46153881;4274.35897443;4467.69230818;4305.25641040;4170.25641012;4205.12820506
4203.58974352;4202.94871788;4367.56410285;4236.79487180;4272.43589751;2267.56409840;229.99999153;-0.00000896;3152.30769002;4103.33333306;4075.76923043;4301.02564117;4303.46153860;4304.10256425;4172.56410243;4205.12820506
4203.20512814;4203.33333327;4170.89743576;4238.07692308;4465.89743639;2266.41025224;229.99999153;-0.00000896;3154.35897207;4106.28205101;4464.87179536;4301.66666681;4139.23076903;4306.92307707;4172.43589730;4205.12820506
4203.07692301;4203.33333327;4139.74358954;4237.05128206;4273.20512828;2239.87179064;229.99999153;-0.00000896;3152.69230540;4106.15384588;4073.71794837;4274.35897443;4008.33333285;4306.15384630;4172.69230756;4205.12820506
4202.82051275;4203.07692301;4366.28205156;4236.53846154;4601.53846231;2268.84614968;229.99999153;-0.00000896;3154.23076694;4109.87179460;4335.64102585;4274.74358982;4398.46153881;4306.41025655;4172.82051269;4205.12820506
4204.48717942;4203.58974352;4498.07692364;4238.33333334;4569.10256480;2268.84614968;229.99999153;-0.00000896;3153.07692079;4108.97435870;4601.53846231;4273.33333341;4205.89743583;4303.58974373;4172.43589730;4205.12820506
4205.38461532;4203.58974352;4401.79487215;4237.69230770;4562.05128275;2265.89743173;229.99999153;-0.00000896;3158.46153617;4110.51282024;4335.76923098;4273.84615392;4663.20512911;4305.89743604;4173.07692294;4205.12820506
4204.23076917;4201.66666660;4306.28205142;4238.84615385;4039.74358933;2237.43589320;229.99999153;-0.00000896;3185.38461316;4110.12820485;4597.30769308;4299.61538476;4464.48717998;4306.53846168;4172.94871781;4205.12820506
4202.94871788;4175.51282038;4466.53846203;4239.10256411;4372.82051310;2239.35897012;229.99999153;-0.00000896;3157.43589515;4135.89743569;4373.20512849;4300.38461553;4502.56410312;4307.56410271;4172.30769217;4205.12820506
4201.66666660;4174.99999986;4567.05128275;4239.87179488;4595.76923154;2239.61538038;229.99999153;-0.00000896;3153.33333104;4109.87179460;4733.33333438;4272.43589751;4431.41025683;4306.53846168;4171.66666653;4205.12820506
4202.17948711;4175.51282038;4829.61538587;4240.51282052;5025.38461706;2268.58973942;229.99999153;-0.00000896;3124.48717713;4110.25640998;4532.69230832;4274.48717956;4602.56410333;4305.64102578;4172.56410243;4205.12820506
4202.94871788;4175.89743576;4438.46153888;4240.38461539;4532.69230832;2270.12820096;229.99999153;-0.00000896;3123.58974123;4107.43589716;4464.87179536;4302.94871809;4174.99999986;4306.28205142;4172.69230756;4205.12820506
4202.43589737;4202.43589737;4240.38461539;4241.02564103;4497.56410312;2265.51281635;229.99999153;-0.00000896;3123.33333097;4105.89743562;4858.58974491;4274.61538469;4531.79487242;4306.53846168;4172.82051269;4205.12820506
4203.46153840;4201.02564096;4761.02564214;4267.43589751;4600.25641102;2238.84614961;229.99999153;-0.00000896;3121.41025405;4108.33333306;4726.79487284;4274.35897443;4602.43589820;4306.53846168;4169.61538448;4205.12820506
4203.46153840;4201.79487173;4339.48717970;4241.41025641;4437.69230811;2267.05127789;229.99999153;-0.00000896;3121.66666431;4105.38461511;4630.25641109;4273.33333341;4271.53846161;4307.43589758;4173.71794858;4205.12820506
4204.48717942;4201.66666660;4693.71794969;4239.74358975;4928.33333480;2267.17948301;229.99999153;-0.00000896;3120.25640790;4106.66666639;4465.51282100;4274.10256418;4307.30769245;4307.05128219;4172.17948704;4205.12820506
4203.33333327;4202.17948711;4009.74358926;4238.71794872;4336.53846175;2267.43589327;229.99999153;-0.00000896;3122.05127969;4107.94871767;4633.97435981;4274.61538469;4267.05128212;4307.30769245;4173.71794858;4205.12820506
4203.58974352;4203.46153840;4533.71794935;4237.82051282;4370.38461567;2270.12820096;229.99999153;-0.00000896;3120.76922841;4107.56410229;4370.12820541;4299.74358989;4729.10256515;4306.53846168;4172.56410243;4205.12820506
4203.46153840;4203.07692301;4661.53846245;4238.07692308;4562.05128275;2267.43589327;229.99999153;-0.00000896;3120.38461303;4107.69230742;4401.41025676;4273.58974366;4565.89743660;4333.07692329;4170.51282038;4205.12820506
4203.71794865;4204.61538455;4268.97435905;4237.30769231;4267.30769238;2271.28204712;229.99999153;-0.00000896;3119.99999764;4107.56410229;4043.20512779;4299.61538476;4334.61538483;4332.82051303;4172.43589730;4205.12820506
4203.46153840;4203.84615378;4601.02564179;4237.30769231;4892.17948857;2266.92307276;229.99999153;-0.00000896;3118.07692072;4110.12820485;4497.30769287;4300.89743604;4103.33333306;4306.15384630;4172.56410243;4205.12820506
4204.99999993;4203.20512814;3681.15384498;4238.46153847;4076.41025607;2267.82050866;229.99999153;-0.00000896;3118.20512585;4107.82051255;4305.38461553;4273.58974366;4203.58974352;4305.89743604;4172.43589730;4205.12820506
4205.12820506;4202.69230763;4562.17948788;4237.94871795;4567.94871865;2266.53845737;229.99999153;-0.00000896;3092.43589501;4106.66666639;4466.41025690;4272.94871802;4532.82051345;4333.20512842;4172.94871781;4205.12820506
4204.10256404;4203.07692301;4404.87179522;4236.79487180;4369.87179515;2270.64102148;229.99999153;-0.00000896;3120.64102328;4108.33333306;4598.84615461;4273.07692315;4664.10256501;4305.00000014;4172.30769217;4205.12820506
4202.30769224;4203.84615378;4464.61538511;4236.66666667;4499.35897492;2269.48717532;229.99999153;-0.00000896;3118.58974123;4109.10256383;4365.38461567;4301.02564117;4434.48717991;4306.02564117;4172.43589730;4205.12820506
4202.43589737;4203.71794865;4503.84615441;4236.15384616;4632.30769315;2268.07691891;229.99999153;-0.00000896;3120.64102328;4136.02564082;4370.51282079;4273.07692315;4336.92307714;4305.25641040;4172.56410243;4205.12820506
4202.17948711;4203.71794865;4238.97435898;4236.41025641;4499.23076979;2270.38461122;229.99999153;-0.00000896;3118.97435662;4137.05128185;4533.97435960;4301.15384630;4566.28205198;4307.17948732;4172.69230756;4205.12820506
4202.56410250;4203.33333327;4372.30769259;4236.66666667;4403.71794907;2269.10255994;229.99999153;-0.00000896;3119.48717713;4110.51282024;4300.51282066;4271.02564110;4465.12820562;4306.41025655;4173.84615371;4205.12820506
4202.17948711;4203.84615378;4502.43589800;4235.51282052;4599.35897513;2271.79486763;229.99999153;-0.00000896;3119.23076687;4136.41025621;4333.84615406;4274.10256418;4405.89743625;4306.41025655;4172.56410243;4205.12820506
4201.41025634;4203.20512814;4431.92307734;4236.28205129;4701.28205226;2270.64102148;229.99999153;-0.00000896;3092.82051039;4136.92307672;4467.17948767;4273.58974366;4104.35897408;4305.51282066;4172.43589730;4205.12820506
4201.66666660;4203.58974352;3973.07692252;4234.74358975;4400.38461574;2270.51281635;0.12819617;-0.00000896;3118.46153610;4109.48717921;4372.43589772;4274.23076930;4206.15384609;4306.92307707;4172.69230756;4205.12820506
4201.66666660;4202.56410250;4174.99999986;4234.23076923;4398.71794907;2271.92307276;-0.00000896;-0.00000896;3119.48717713;4110.25640998;4041.02564061;4299.61538476;4137.43589723;4307.05128219;4172.05128192;4205.12820506
4201.15384609;4203.20512814;4240.00000000;4234.23076923;4169.99999986;2271.79486763;229.99999153;-0.00000896;3120.89743354;4136.41025621;4340.12820534;4299.87179501;4273.07692315;4306.02564117;4172.69230756;4205.12820506
4203.33333327;4203.71794865;4201.15384609;4234.61538462;4602.17948795;2298.33332924;-0.00000896;-0.00000896;3119.99999764;4107.69230742;4267.17948725;4273.84615392;4011.15384567;4305.76923091;4172.69230756;4205.12820506
4203.07692301;4201.66666660;4076.02564068;4234.61538462;4269.23076930;2269.74358558;-0.00000896;-0.00000896;3121.02563867;4136.02564082;4532.43589807;4273.58974366;4529.87179550;4306.92307707;4173.07692294;4205.12820506
4202.82051275;4202.82051275;4338.97435919;4208.46153840;4304.23076937;2271.02563686;-0.00000896;-0.00000896;3121.41025405;4137.56410236;4239.35897436;4302.30769245;4466.02564152;4307.56410271;4172.30769217;4205.12820506
4203.20512814;4203.20512814;4340.38461560;4208.20512814;4567.56410326;2269.10255994;-0.00000896;-0.00000896;3119.48717713;4110.64102537;4304.61538476;4273.46153853;4271.15384623;4305.64102578;4172.94871781;4205.12820506
4204.10256404;4203.33333327;4334.35897457;4208.07692301;4433.84615427;2268.58973942;-0.00000896;-0.00000896;3119.10256174;4137.82051262;4137.82051262;4300.51282066;4367.69230797;4306.41025655;4172.94871781;4205.12820506
4203.46153840;4202.82051275;4269.23076930;4234.48717949;4693.71794969;2269.35897019;-0.00000896;-0.00000896;3119.10256174;4138.46153826;4431.41025683;4274.61538469;4008.71794824;4307.17948732;4171.28205115;4205.12820506
4203.46153840;4203.97435891;4139.35897415;4234.87179488;4107.30769203;2266.92307276;-0.00000896;-0.00000896;3120.25640790;4138.97435877;4235.76923077;4273.71794879;4398.97435933;4306.15384630;4173.46153833;4205.12820506
4203.33333327;4203.58974352;4239.48717949;4236.28205129;4565.38461608;2270.12820096;-0.00000896;-0.00000896;3120.89743354;4137.56410236;4241.66666667;4273.97435905;4071.15384581;4305.25641040;4173.07692294;4205.12820506
4202.69230763;4203.46153840;4143.07692287;4234.87179488;4501.41025697;2298.71794462;-0.00000896;-0.00000896;3121.41025405;4138.84615364;4208.71794865;4273.46153853;4302.30769245;4307.56410271;4172.56410243;4205.12820506
4202.69230763;4204.10256404;4238.46153847;4234.10256411;4333.33333355;2271.41025224;-0.00000896;-0.00000896;3122.69230533;4139.35897415;4143.33333313;4274.48717956;4204.99999993;4307.56410271;4173.58974345;4205.12820506
4202.17948711;4203.07692301;4367.56410285;4208.46153840;4826.02564228;2271.66666250;-0.00000896;-0.00000896;3118.71794636;4137.30769210;4568.84615454;4274.10256418;4137.05128185;4305.64102578;4172.69230756;4205.12820506
4202.56410250;4203.33333327;4234.23076923;4207.17948711;4270.76923084;2298.71794462;-0.00000896;-0.00000896;3092.69230526;4109.61538434;4072.30769196;4300.12820527;4175.38461525;4306.92307707;4172.69230756;4205.12820506
4203.71794865;4205.51282045;4339.87179508;4209.10256404;4761.66666778;2271.66666250;-0.00000896;-0.00000896;3118.84615149;4109.99999973;4333.33333355;4299.74358989;4073.07692273;4306.92307707;4173.33333320;4205.12820506
4203.71794865;4205.25641019;4399.87179522;4207.69230763;4529.35897499;2270.89743173;-0.00000896;-0.00000896;3124.48717713;4142.30769210;4398.58974394;4273.84615392;4268.58974366;4305.76923091;4173.20512807;4205.12820506
4204.99999993;4206.02564096;4433.58974401;4207.30769224;4697.94871893;2266.53845737;-0.00000896;-0.00000896;3151.15384386;4136.41025621;4335.00000021;4300.12820527;4404.74359009;4305.76923091;4172.56410243;4205.12820506
4202.69230763;4203.07692301;4173.07692294;4207.17948711;4336.28205149;2270.89743173;-0.00000896;-0.00000896;3151.53845925;4136.53846133;4432.17948760;4301.53846168;4305.76923091;4306.41025655;4172.94871781;4205.12820506
4203.20512814;4203.58974352;4437.82051324;4207.69230763;4465.51282100;2268.46153430;-0.00000896;-0.00000896;3122.43589508;4109.87179460;4170.38461525;4301.02564117;4503.84615441;4305.25641040;4171.66666653;4205.12820506
4203.71794865;4204.87179481;4208.46153840;4207.94871788;4504.48718005;2271.66666250;-0.00000896;-0.00000896;3122.43589508;4135.89743569;4206.15384609;4300.51282066;4171.79487166;4306.53846168;4172.82051269;4205.12820506
4202.82051275;4204.61538455;4305.51282066;4209.10256404;4465.00000049;2268.33332917;-0.00000896;-0.00000896;3121.15384380;4110.25640998;4303.84615399;4273.71794879;4400.25641061;4306.66666681;4172.82051269;4205.12820506
4202.94871788;4205.51282045;4201.53846147;4207.30769224;4302.30769245;2266.92307276;-0.00000896;-0.00000896;3120.25640790;4138.71794851;4529.35897499;4300.38461553;4536.41025704;4305.64102578;4172.94871781;4205.12820506
4203.58974352;4204.61538455;4533.58974422;4208.33333327;4890.25641165;2267.69230353;-0.00000896;-0.00000896;3121.92307456;4109.99999973;4502.17948774;4274.35897443;4239.35897436;4305.51282066;4173.20512807;4205.12820506
4204.74358968;4204.61538455;4333.20512842;4206.53846147;4471.41025690;2267.17948301;-0.00000896;-0.00000896;3121.53845918;4110.25640998;4471.53846203;4274.74358982;4207.69230763;4305.38461553;4172.82051269;4205.12820506
4205.38461532;4204.87179481;4401.41025676;4205.64102558;4602.56410333;2267.17948301;-0.00000896;-0.00000896;3121.92307456;4138.58974339;4333.71794893;4274.61538469;4436.15384657;4306.79487194;4172.43589730;4205.12820506
4204.48717942;4204.23076917;4437.69230811;4204.48717942;4701.41025739;2266.41025224;-0.00000896;-0.00000896;3150.76922848;4108.46153819;4339.23076944;4300.64102578;4236.92307693;4306.92307707;4173.07692294;4205.12820506
4202.05128199;4207.43589737;4267.69230777;4203.07692301;4567.82051352;2265.25640609;-0.00000896;-0.00000896;3124.48717713;4170.64102551;4369.23076951;4300.12820527;4333.07692329;4305.51282066;4173.46153833;4205.12820506
4203.46153840;4205.64102558;4305.89743604;4203.33333327;4630.38461622;2231.92307269;229.99999153;-0.00000896;3154.99999771;4137.94871774;4136.53846133;4300.64102578;4107.30769203;4305.00000014;4173.20512807;4205.12820506
4203.07692301;4203.58974352;4465.00000049;4208.46153840;4664.48718039;2207.05127775;229.99999153;-0.00000896;3120.38461303;4171.41025628;4795.89743708;4272.82051289;4332.94871816;4305.89743604;4173.58974345;4205.12820506
4202.43589737;4205.51282045;4171.53846140;4235.51282052;4598.97435974;2297.69230360;229.99999153;-0.00000896;3154.74358745;4138.20512800;4168.84615371;4273.46153853;4108.58974332;4307.30769245;4174.74358961;4205.12820506
4202.17948711;4204.87179481;4368.58974387;4208.46153840;4663.58974450;2265.76922660;229.99999153;-0.00000896;3120.76922841;4143.07692287;4499.48718005;4273.97435905;4499.61538518;4332.56410278;4172.69230756;4205.12820506
4202.82051275;4203.58974352;4337.17948739;4233.97435898;4465.12820562;2236.41025218;1.53845258;-0.00000896;3152.69230540;4139.48717928;4498.20512876;4273.20512828;4635.76923161;4332.56410278;4174.23076910;4205.12820506
4203.58974352;4203.84615378;4405.25641061;4207.82051275;4566.41025711;2268.46153430;1.02563207;-0.00000896;3150.76922848;4138.97435877;4436.66666709;4300.25641040;4437.30769273;4306.79487194;4173.33333320;4205.12820506
4203.84615378;4202.94871788;4433.97435940;4208.20512814;4468.97435946;2266.92307276;229.99999153;-0.00000896;3123.58974123;4138.71794851;4435.76923119;4273.71794879;4727.05128310;4306.66666681;4171.66666653;4205.12820506
4204.74358968;4203.97435891;4235.12820513;4208.33333327;4271.79487187;2264.87179071;1.02563207;-0.00000896;3154.23076694;4140.51282031;4143.07692287;4273.97435905;4239.48717949;4306.79487194;4173.46153833;4205.12820506
4205.38461532;4204.35897429;3873.07692232;4234.35897436;4333.71794893;2238.71794448;229.99999153;-0.00000896;3153.58974130;4137.82051262;4208.71794865;4301.28205142;4039.10256369;4306.66666681;4173.58974345;4205.12820506
4206.28205122;4202.30769224;4464.23076972;4234.74358975;4667.94871886;2264.74358558;1.02563207;-0.00000896;3155.25640797;4139.35897415;4371.28205156;4299.87179501;4105.51282024;4305.64102578;4173.20512807;4205.12820506
4206.53846147;4203.07692301;4240.38461539;4208.84615378;4537.17948781;2264.87179071;229.99999153;-0.00000896;3156.15384386;4139.23076903;4108.46153819;4273.71794879;4203.46153840;4306.28205142;4173.07692294;4205.12820506
4205.12820506;4203.20512814;4206.41025634;4208.33333327;4370.51282079;2236.92307269;1.02563207;-0.00000896;3155.51281822;4143.07692287;4238.58974359;4300.38461553;4236.53846154;4305.12820527;4173.07692294;4205.12820506
4206.15384609;4202.56410250;4305.25641040;4208.71794865;4531.15384678;2266.53845737;229.99999153;-0.00000896;3154.23076694;4110.51282024;4370.64102592;4300.51282066;4267.43589751;4304.48717963;4172.94871781;4205.12820506
4205.38461532;4202.05128199;4105.64102537;4234.23076923;4599.10256487;2268.97435481;1.02563207;-0.00000896;3155.12820284;4136.15384595;4303.58974373;4299.87179501;3843.20512738;4306.92307707;4172.82051269;4205.12820506
4205.51282045;4202.05128199;4300.51282066;4235.12820513;4693.71794969;2269.10255994;229.99999153;-0.00000896;3154.48717720;4142.17948697;4143.07692287;4299.48717963;3880.25640950;4305.38461553;4172.94871781;4205.12820506
4205.12820506;4202.56410250;4075.51282017;4235.64102564;4241.28205129;2239.87179064;1.02563207;-0.00000896;3155.76922848;4138.20512800;3709.87179376;4300.64102578;3942.30769169;4305.64102578;4174.23076910;4205.12820506
4204.99999993;4203.33333327;4138.46153826;4234.35897436;4138.07692287;2238.84614961;229.99999153;-0.00000896;3155.25640797;4136.28205108;3977.69230714;4300.38461553;4241.41025641;4305.64102578;4173.07692294;4205.12820506
4203.97435891;4202.17948711;4072.43589709;4235.12820513;4562.56410326;2237.17948294;1.02563207;-0.00000896;3158.20512592;4139.61538441;4006.15384567;4300.25641040;3845.38461455;4304.23076937;4173.33333320;4205.12820506
4203.84615378;4201.92307686;4071.53846119;4235.89743590;4042.17948677;2264.74358558;229.99999153;-0.00000896;3156.02563874;4142.17948697;3745.76922973;4274.35897443;4037.82051241;4305.51282066;4173.46153833;4205.12820506
4202.05128199;4176.28205115;3878.07692232;4237.94871795;4207.94871788;2267.69230353;1.02563207;-0.00000896;3157.17948489;4168.20512807;3876.02564027;4274.48717956;3348.20512633;4306.79487194;4169.99999986;4205.12820506
4201.66666660;4201.15384609;3546.53846008;4237.43589744;3878.46153770;2264.99999583;229.99999153;-0.00000896;3155.25640797;4140.12820492;3415.25640852;4301.66666681;3972.05128150;4305.76923091;4173.33333320;4205.12820506
4201.66666660;4201.53846147;3613.46153715;4236.02564103;3678.97435780;2239.48717525;1.02563207;-0.00000896;3151.15384386;4138.46153826;3776.02564006;4299.61538476;3746.28205024;4306.41025655;4174.48717935;4205.12820506
4201.79487173;4201.79487173;3286.02563901;4236.92307693;3580.76922938;2238.84614961;229.99999153;-0.00000896;3151.28204899;4138.71794851;3383.58974179;4300.89743604;3348.71794685;4305.38461553;4173.46153833;4205.12820506
4202.05128199;4201.28205122;3744.48717845;4237.05128206;3943.84615322;2238.20512397;1.02563207;-0.00000896;3151.02563874;4142.30769210;3544.74358829;4301.41025655;3482.69230610;4306.15384630;4175.64102551;4205.12820506
4201.66666660;4201.02564096;3347.82051095;4236.15384616;3814.23076833;2266.15384199;229.99999153;-0.00000896;3124.99999764;4140.64102544;3681.92307575;4302.05128219;3256.79486971;4306.28205142;4173.33333320;4205.12820506
4203.58974352;4203.20512814;3317.43589549;4236.28205129;3613.33333202;2268.58973942;1.02563207;-0.00000896;3122.56410021;4143.20512800;3288.84615183;4302.05128219;3612.69230638;4304.74358989;4172.94871781;4205.12820506
4203.58974352;4203.97435891;3649.35897311;4236.28205129;4108.07692280;2234.10255987;229.99999153;-0.00000896;3151.66666438;4141.92307672;3973.07692252;4273.58974366;3749.35897332;4305.51282066;4173.71794858;4205.12820506
4202.30769224;4201.15384609;3680.51281934;4235.76923077;3746.41025537;2235.38461115;1.02563207;-0.00000896;3156.66666438;4170.38461525;3577.43589605;4302.05128219;3814.23076833;4306.79487194;4173.20512807;4205.12820506
4201.92307686;4174.99999986;3909.61538392;4237.17948718;4141.41025621;2238.71794448;229.99999153;-0.00000896;3155.51281822;4139.74358954;3843.46153763;4301.15384630;3780.76922980;4307.05128219;4173.20512807;4205.12820506
4202.94871788;4174.87179474;3971.28205073;4236.66666667;4135.76923056;2266.53845737;1.02563207;-0.00000896;3152.82051053;4141.53846133;4040.64102523;4301.02564117;3781.92307595;4303.97435912;4173.20512807;4205.12820506
4176.15384602;4173.71794858;3940.89743528;4239.10256411;4401.92307727;2266.79486763;229.99999153;-0.00000896;3123.84615149;4136.41025621;4138.07692287;4299.74358989;3715.89743479;4306.15384630;4173.07692294;4172.30769217
4201.92307686;4174.35897422;3909.23076854;4238.71794872;4595.25641102;2271.53845737;1.02563207;-0.00000896;3122.05127969;4139.23076903;4041.92307651;4274.10256418;3745.64102460;4307.05128219;4172.82051269;4205.12820506
4202.56410250;4201.02564096;4103.33333306;4236.66666667;4635.76923161;2268.33332917;229.99999153;-0.00000896;3121.92307456;4109.23076896;4108.07692280;4299.61538476;3711.66666556;4305.25641040;4173.58974345;4205.12820506
4201.28205122;4175.51282038;4043.84615343;4238.07692308;4432.69230811;2266.28204712;1.53845258;-0.00000896;3152.82051053;4139.48717928;3774.48717852;4272.94871802;3944.23076861;4306.28205142;4173.33333320;4205.12820506
4176.28205115;4174.99999986;3945.12820451;4237.56410257;4175.38461525;2266.66666250;0.51281155;-0.00000896;3152.17948489;4137.17948697;3940.38461476;4299.61538476;4268.20512828;4306.79487194;4173.58974345;4172.30769217
4175.76923063;4174.74358961;3813.46153756;4236.66666667;4039.23076882;2272.30768814;2.17947822;-0.00000896;3126.02563867;4136.79487159;3775.12820416;4299.87179501;4041.92307651;4332.43589765;4173.07692294;4172.30769217
4174.35897422;4175.64102551;4436.15384657;4236.79487180;4498.46153902;2298.07691898;229.99999153;-0.00000896;3122.56410021;4135.38461518;4238.97435898;4273.71794879;4336.02564124;4305.76923091;4173.97435884;4172.30769217
4175.12820499;4176.15384602;4239.35897436;4237.56410257;4732.17948823;2300.25640616;229.99999153;-0.00000896;3118.33333097;4139.35897415;4237.05128206;4300.76923091;4270.38461546;4306.66666681;4173.58974345;4172.30769217
4176.02564089;4202.30769224;4398.84615420;4237.05128206;4564.61538531;2300.12820103;229.99999153;-0.00000896;3092.82051039;4138.84615364;4666.28205219;4272.56410264;4135.64102544;4306.02564117;4173.07692294;4172.30769217
4201.92307686;4202.82051275;4037.17948677;4236.53846154;4566.66666737;2298.33332924;229.99999153;-0.00000896;3118.46153610;4137.05128185;4142.05128185;4303.97435912;4141.28205108;4306.02564117;4173.07692294;4205.12820506
4204.10256404;4203.46153840;4697.43589841;4235.00000000;4760.76923188;2271.15384199;-0.00000896;-0.00000896;3091.28204885;4141.53846133;4798.97436016;4274.48717956;4534.87179550;4306.02564117;4172.69230756;4205.12820506
4203.58974352;4203.97435891;4043.20512779;4234.74358975;4238.46153847;2268.20512404;-0.00000896;-0.00000896;3091.79486937;4137.30769210;4335.00000021;4301.15384630;4367.56410285;4304.10256425;4171.15384602;4205.12820506
4204.35897429;4202.17948711;4470.25641075;4234.87179488;4667.82051373;2268.97435481;-0.00000896;-0.00000896;3120.76922841;4135.76923056;4371.79487208;4300.00000014;4202.05128199;4306.41025655;4173.58974345;4205.12820506
4204.99999993;4201.66666660;4305.12820527;4234.23076923;4371.66666695;2272.17948301;-0.00000896;-0.00000896;3120.76922841;4103.71794844;4173.58974345;4300.12820527;4470.51282100;4306.28205142;4173.07692294;4205.12820506
4204.74358968;4176.28205115;4107.30769203;4233.97435898;4333.46153867;2270.76922660;-0.00000896;-0.00000896;3125.12820277;4106.79487152;4172.69230756;4273.07692315;4168.84615371;4305.00000014;4173.20512807;4205.12820506
4205.25641019;4201.66666660;4635.51282135;4235.25641026;4629.10256494;2265.12820096;-0.00000896;-0.00000896;3125.38461303;4109.87179460;4401.41025676;4299.48717963;4664.23077014;4305.64102578;4173.33333320;4205.12820506
4204.74358968;4176.28205115;4371.28205156;4234.10256411;4766.66666778;2239.61538038;-0.00000896;-0.00000896;3124.10256174;4109.48717921;4531.53846217;4300.76923091;4168.71794858;4305.76923091;4173.46153833;4205.12820506
4204.10256404;4203.20512814;5683.33333639;4235.25641026;5417.69231020;2268.07691891;-0.00000896;-0.00000896;3122.82051046;4138.71794851;5616.53846446;4274.61538469;5682.17949024;4304.48717963;4173.58974345;4205.12820506
4204.74358968;4203.84615378;4497.43589800;4234.61538462;4929.10256557;2239.48717525;-0.00000896;-0.00000896;3122.17948482;4135.51282031;4274.35897443;4300.51282066;4500.51282107;4305.64102578;4174.10256397;4205.12820506
4205.89743583;4203.33333327;4697.17948816;4234.23076923;4464.48717998;2233.07691884;-0.00000896;-0.00000896;3151.02563874;4141.15384595;4631.28205212;4301.02564117;4601.92307769;4306.02564117;4173.46153833;4205.12820506
4205.12820506;4202.82051275;4371.28205156;4235.64102564;4465.25641075;2204.87179057;-0.00000896;-0.00000896;3153.20512592;4142.05128185;4501.41025697;4273.58974366;4463.97435946;4306.15384630;4171.66666653;4205.12820506
4204.61538455;4201.79487173;4370.12820541;4236.41025641;4269.87179495;2235.12820089;-0.00000896;-0.00000896;3151.15384386;4168.71794858;4207.82051275;4300.38461553;4040.64102523;4305.76923091;4173.58974345;4205.12820506
4202.82051275;4175.38461525;4401.79487215;4237.69230770;4666.28205219;2239.10255987;-0.00000896;-0.00000896;3122.94871559;4139.61538441;4404.35897471;4274.61538469;4826.92307818;4306.15384630;4170.76923063;4205.12820506
4202.05128199;4175.64102551;4431.41025683;4236.28205129;4498.07692364;2266.66666250;-0.00000896;-0.00000896;3119.48717713;4137.82051262;4303.71794886;4301.92307707;4569.35897506;4306.02564117;4173.07692294;4205.12820506
4202.69230763;4175.76923063;4503.07692364;4234.74358975;4368.33333362;2238.97435474;-0.00000896;-0.00000896;3119.61538226;4136.02564082;4438.71794914;4307.05128219;4529.23076986;4306.28205142;4176.02564089;4205.12820506
4201.28205122;4201.79487173;4370.89743618;4234.48717949;4372.69230797;2266.66666250;-0.00000896;-0.00000896;3121.15384380;4108.84615357;4732.69230874;4274.35897443;4403.20512856;4306.92307707;4173.07692294;4205.12820506
4202.05128199;4203.20512814;4501.15384671;4207.82051275;4665.89743680;2266.53845737;-0.00000896;-0.00000896;3120.38461303;4107.17948691;4862.17948850;4300.51282066;4402.69230804;4304.48717963;4173.20512807;4205.12820506
4202.56410250;4204.35897429;4434.48717991;4206.53846147;4698.58974457;2266.15384199;-0.00000896;-0.00000896;3124.10256174;4140.51282031;4402.43589779;4299.87179501;4760.51282163;4306.02564117;4173.07692294;4205.12820506
4176.28205115;4204.74358968;4402.30769266;4206.41025634;4629.10256494;2267.82050866;-0.00000896;-0.00000896;3123.07692072;4139.35897415;4498.84615441;4274.48717956;4595.51282128;4305.89743604;4173.33333320;4172.30769217
4202.56410250;4205.51282045;4502.94871851;4205.51282045;4628.97435981;2268.58973942;-0.00000896;-0.00000896;3123.84615149;4136.92307672;4471.41025690;4273.46153853;4898.20512960;4303.97435912;4172.56410243;4205.12820506
4202.05128199;4205.25641019;4661.41025732;4205.12820506;4699.74359072;2268.46153430;-0.00000896;-0.00000896;3151.79486951;4142.82051262;4498.58974415;4301.28205142;4661.02564193;4304.74358989;4173.33333320;4205.12820506
4203.71794865;4205.89743583;4598.33333410;4203.84615378;4569.35897506;2270.12820096;-0.00000896;-0.00000896;3152.69230540;4140.25641005;4465.25641075;4300.00000014;4338.07692329;4305.64102578;4173.33333320;4205.12820506
4205.89743583;4206.92307686;4372.56410285;4202.56410250;4728.58974464;2299.99999590;-0.00000896;-0.00000896;3152.43589515;4168.58974345;4335.12820534;4302.69230784;4402.17948753;4333.58974380;4173.46153833;4205.12820506
4205.89743583;4207.17948711;4501.53846210;4204.99999993;4693.33333431;2270.64102148;-0.00000896;-0.00000896;3153.84615156;4139.87179467;4372.43589772;4274.10256418;4567.30769301;4302.56410271;4173.58974345;4205.12820506
4207.17948711;4207.05128199;4601.53846231;4205.64102558;4564.23076993;2238.71794448;229.99999153;-0.00000896;3158.33333104;4171.02564089;4596.41025718;4300.25641040;4797.30769349;4305.00000014;4173.33333320;4205.12820506
4207.43589737;4204.87179481;4761.92307804;4206.92307686;4893.71795011;2236.15384192;-0.00000896;-0.00000896;3183.71794650;4168.33333320;4497.30769287;4300.12820527;4300.12820527;4305.00000014;4171.79487166;4205.12820506
4205.64102558;4204.10256404;4629.61538545;4207.56410250;4372.17948746;2265.89743173;1.02563207;-0.00000896;3184.48717727;4171.15384602;4733.20512925;4299.74358989;4665.38461629;4305.89743604;4173.71794858;4205.12820506
4206.79487173;4203.33333327;4599.87179564;4207.69230763;4824.74359100;2267.82050866;1.02563207;-0.00000896;3157.94871566;4173.07692294;4760.38461650;4273.71794879;4631.28205212;4304.87179501;4174.35897422;4205.12820506
4206.79487173;4202.94871788;4368.97435926;4208.07692301;4371.66666695;2238.97435474;229.99999153;-0.00000896;3158.20512592;4174.74358961;4504.10256466;4274.74358982;4566.66666737;4305.25641040;4173.84615371;4205.12820506
4206.15384609;4202.56410250;4562.82051352;4236.15384616;4402.82051317;2265.12820096;229.99999153;-0.00000896;3157.30769002;4142.94871774;4733.07692412;4299.74358989;4568.84615454;4305.38461553;4201.53846147;4205.12820506
4205.64102558;4202.69230763;4431.28205170;4234.48717949;4630.64102648;2234.74358551;229.99999153;-0.00000896;3156.28204899;4168.84615371;4108.84615357;4299.74358989;4564.23076993;4305.38461553;4173.07692294;4205.12820506
4204.23076917;4202.30769224;4499.61538518;4234.74358975;4075.51282017;2236.15384192;229.99999153;-0.00000896;3155.64102335;4169.48717935;4630.25641109;4274.61538469;4267.05128212;4303.84615399;4173.97435884;4205.12820506
4203.46153840;4202.05128199;4172.30769217;4235.25641026;4299.48717963;2234.10255987;229.99999153;-0.00000896;3156.66666438;4141.92307672;4207.05128199;4300.64102578;4302.05128219;4305.38461553;4171.79487166;4205.12820506
4202.05128199;4175.25641012;4371.92307720;4235.25641026;4399.10256445;2236.92307269;229.99999153;-0.00000896;3155.89743361;4168.46153833;4470.51282100;4299.48717963;4207.56410250;4304.87179501;4173.71794858;4205.12820506
4175.51282038;4175.51282038;4465.12820562;4236.79487180;4274.10256418;2238.46153423;229.99999153;-0.00000896;3155.38461310;4136.79487159;4106.41025614;4300.00000014;4602.69230846;4305.38461553;4173.71794858;4172.30769217
4174.61538448;4174.61538448;4043.84615343;4234.61538462;4532.94871858;2266.92307276;229.99999153;-0.00000896;3152.17948489;4142.82051262;4400.00000035;4302.82051296;3942.69230707;4306.79487194;4173.84615371;4172.30769217
4174.99999986;4174.99999986;4272.69230777;4207.69230763;4300.51282066;2239.87179064;229.99999153;-0.00000896;3118.97435662;4139.87179467;4529.61538524;4300.64102578;4497.30769287;4307.30769245;4173.20512807;4172.30769217
4201.02564096;4175.64102551;4367.30769259;4207.05128199;4499.61538518;2238.97435474;229.99999153;-0.00000896;3117.94871559;4142.30769210;4503.07692364;4300.51282066;4431.02564145;4303.97435912;4173.71794858;4205.12820506
4203.33333327;4203.20512814;4273.71794879;4206.79487173;4272.17948725;2235.12820089;229.99999153;-0.00000896;3118.58974123;4137.30769210;4431.15384657;4299.87179501;4502.69230825;4304.35897450;4173.46153833;4205.12820506
4204.74358968;4203.97435891;4434.74359016;4207.56410250;4398.07692343;2234.99999577;229.99999153;-0.00000896;3124.48717713;4169.74358961;4332.94871816;4300.00000014;4143.33333313;4304.61538476;4173.46153833;4205.12820506
4204.87179481;4204.74358968;4274.35897443;4207.43589737;4529.61538524;2238.46153423;229.99999153;-0.00000896;3153.58974130;4143.46153826;4468.97435946;4300.64102578;4143.20512800;4304.23076937;4174.35897422;4205.12820506
4205.25641019;4204.10256404;4534.10256473;4205.38461532;4564.87179557;2265.51281635;229.99999153;-0.00000896;3153.97435669;4139.48717928;4274.61538469;4299.74358989;4596.66666743;4301.41025655;4173.46153833;4205.12820506
4204.87179481;4203.97435891;4633.71794956;4204.74358968;4436.92307734;2238.84614961;229.99999153;-0.00000896;3155.76922848;4141.66666646;4499.87179543;4301.41025655;4434.10256452;4306.02564117;4173.20512807;4205.12820506
4206.02564096;4203.07692301;4596.79487256;4205.38461532;4798.84615503;2236.92307269;229.99999153;-0.00000896;3158.07692079;4169.23076910;4405.25641061;4273.84615392;4435.00000042;4305.51282066;4172.69230756;4205.12820506
4205.64102558;4203.58974352;4435.64102606;4206.41025634;4399.35897471;2266.79486763;229.99999153;-0.00000896;3184.35897214;4169.35897422;4860.76923209;4300.25641040;4465.38461587;4303.20512835;4173.84615371;4205.12820506
4206.53846147;4201.02564096;4431.53846196;4207.69230763;4369.74359003;2239.87179064;229.99999153;-0.00000896;3186.92307470;4169.48717935;4667.82051373;4273.33333341;4598.46153923;4303.58974373;4174.87179474;4205.12820506
4207.17948711;4202.56410250;4337.30769252;4206.28205122;4629.23077007;2265.38461122;229.99999153;-0.00000896;3189.10256188;4170.25641012;4595.51282128;4274.74358982;4435.00000042;4332.43589765;4173.46153833;4205.12820506
4206.28205122;4202.43589737;4533.07692371;4207.43589737;4563.46153916;2237.43589320;229.99999153;-0.00000896;3188.84615163;4143.46153826;4727.43589848;4301.53846168;4632.30769315;4304.61538476;4173.71794858;4205.12820506
4205.25641019;4201.79487173;4661.15384706;4207.17948711;4861.92307825;2237.05127782;229.99999153;-0.00000896;3188.20512599;4170.89743576;4431.66666709;4300.38461553;4762.56410368;4305.89743604;4173.71794858;4205.12820506
4205.12820506;4201.66666660;4793.58974477;4207.56410250;4727.30769335;2237.69230346;229.99999153;-0.00000896;3186.92307470;4168.97435884;4497.30769287;4300.00000014;4631.41025725;4304.35897450;4176.02564089;4205.12820506
4203.33333327;4203.07692301;4597.82051359;4234.74358975;4500.25641082;2239.35897012;229.99999153;-0.00000896;3185.89743368;4142.69230749;4368.58974387;4300.00000014;4272.43589751;4305.64102578;4173.58974345;4205.12820506
4203.71794865;4202.05128199;4434.35897478;4235.12820513;4699.35897534;2265.38461122;229.99999153;-0.00000896;3185.89743368;4141.02564082;4599.35897513;4274.48717956;4432.43589786;4305.38461553;4173.58974345;4205.12820506
4203.71794865;4201.92307686;4305.76923091;4235.12820513;4438.20512863;2264.87179071;229.99999153;-0.00000896;3184.61538240;4141.02564082;4240.76923077;4299.61538476;4201.41025634;4302.82051296;4173.71794858;4205.12820506
4202.43589737;4201.79487173;4234.23076923;4237.05128206;4303.97435912;2238.20512397;229.99999153;-0.00000896;3157.82051053;4140.38461518;4471.66666716;4300.38461553;4469.10256459;4305.12820527;4173.84615371;4205.12820506
4203.33333327;4203.20512814;4271.28205136;4236.15384616;4269.23076930;2237.17948294;229.99999153;-0.00000896;3156.66666438;4142.43589723;4070.51282017;4274.48717956;4467.56410305;4305.12820527;4176.15384602;4205.12820506
4202.56410250;4203.33333327;4436.28205170;4235.51282052;4502.17948774;2238.20512397;229.99999153;-0.00000896;3156.02563874;4169.23076910;4306.41025655;4301.92307707;4534.10256473;4304.48717963;4173.33333320;4205.12820506
4202.94871788;4202.82051275;4436.53846196;4236.41025641;4465.12820562;2237.17948294;229.99999153;-0.00000896;3154.10256181;4142.69230749;4402.43589779;4300.00000014;4600.89743667;4305.00000014;4174.48717935;4205.12820506
4204.35897429;4204.10256404;4272.82051289;4235.76923077;4401.92307727;2237.05127782;229.99999153;-0.00000896;3151.79486951;4139.23076903;4304.23076937;4301.92307707;4401.02564138;4305.00000014;4173.58974345;4205.12820506
4204.99999993;4203.58974352;4501.53846210;4235.89743590;4366.41025669;2234.99999577;229.99999153;-0.00000896;3153.33333104;4140.51282031;4371.92307720;4274.48717956;4727.30769335;4303.58974373;4172.56410243;4205.12820506
4204.74358968;4202.69230763;4532.05128268;4234.61538462;4793.07692426;2235.89743166;229.99999153;-0.00000896;3151.28204899;4141.79487159;4432.17948760;4300.64102578;4300.89743604;4305.64102578;4173.46153833;4205.12820506
4205.12820506;4204.10256404;4596.02564179;4234.10256411;4431.66666709;2238.20512397;229.99999153;-0.00000896;3151.66666438;4143.07692287;4372.30769259;4300.51282066;4532.05128268;4304.74358989;4173.71794858;4205.12820506
4205.76923070;4203.84615378;4334.87179508;4208.58974352;4501.28205184;2234.10255987;2.56409360;-0.00000896;3156.02563874;4172.05128192;4365.76923105;4300.25641040;4368.71794900;4304.61538476;4173.46153833;4205.12820506
4205.12820506;4202.69230763;4504.35897492;4206.15384609;4338.71794893;2206.79486749;3.20511925;-0.00000896;3185.12820291;4173.07692294;4761.02564214;4302.05128219;4569.48718019;4306.28205142;4173.46153833;4205.12820506
4205.25641019;4201.28205122;4204.48717942;4206.53846147;4404.35897471;2235.89743166;229.99999153;-0.00000896;3187.17948496;4138.84615364;4634.48718032;4300.00000014;4306.41025655;4306.41025655;4173.58974345;4205.12820506
4204.74358968;4201.53846147;4568.07692378;4207.17948711;4762.82051394;2238.84614961;3.20511925;-0.00000896;3157.94871566;4141.41025621;4438.46153888;4300.00000014;4337.17948739;4304.74358989;4173.33333320;4205.12820506
4205.51282045;4201.15384609;4535.51282114;4206.41025634;4532.82051345;2237.94871371;-0.00000896;-0.00000896;3158.07692079;4140.89743569;4399.48717984;4299.48717963;4634.10256494;4303.71794886;4174.99999986;4205.12820506
4204.87179481;4202.43589737;4661.79487270;4206.92307686;4531.41025704;2239.61538038;-0.00000896;-0.00000896;3157.05127976;4169.48717935;4532.17948781;4273.71794879;4502.30769287;4304.10256425;4173.84615371;4205.12820506
4204.23076917;4203.20512814;4371.79487208;4207.43589737;4108.20512793;2236.02563679;-0.00000896;-0.00000896;3184.87179265;4168.71794858;4305.12820527;4273.46153853;4366.53846182;4303.33333348;4173.20512807;4205.12820506
4205.51282045;4202.94871788;4535.64102627;4207.30769224;4796.66666785;2237.94871371;-0.00000896;-0.00000896;3184.74358752;4142.82051262;4272.94871802;4271.92307700;4176.02564089;4303.71794886;4173.97435884;4205.12820506
4204.74358968;4202.43589737;4597.17948795;4234.48717949;4403.07692343;2238.07691884;-0.00000896;-0.00000896;3183.58974137;4142.05128185;4303.97435912;4300.25641040;4535.38461601;4304.61538476;4173.07692294;4205.12820506
4205.25641019;4202.69230763;4502.56410312;4233.97435898;4468.58974408;2237.43589320;-0.00000896;-0.00000896;3185.51281829;4138.20512800;4498.71794928;4273.97435905;4304.48717963;4302.17948732;4173.58974345;4205.12820506
4204.61538455;4202.30769224;4471.02564152;4208.71794865;4596.53846231;2264.61538045;-0.00000896;-0.00000896;3186.53845932;4138.71794851;4501.92307748;4301.79487194;4339.87179508;4303.97435912;4174.87179474;4205.12820506
4203.20512814;4202.82051275;4663.20512911;4235.12820513;4698.20512918;2235.38461115;-0.00000896;-0.00000896;3186.79486958;4170.51282038;4496.41025697;4301.02564117;4076.02564068;4303.71794886;4173.97435884;4205.12820506
4202.43589737;4202.30769224;4267.17948725;4234.74358975;4270.38461546;2236.41025218;-0.00000896;-0.00000896;3188.33333111;4142.94871774;4235.00000000;4300.12820527;4662.94871886;4304.87179501;4174.35897422;4205.12820506
4202.56410250;4202.82051275;4434.35897478;4235.64102564;4570.12820583;2238.58973935;-0.00000896;-0.00000896;3185.25640804;4143.33333313;4301.41025655;4300.12820527;4399.35897471;4304.61538476;4173.07692294;4205.12820506
4202.43589737;4201.92307686;4562.69230839;4236.02564103;4465.12820562;2266.79486763;-0.00000896;-0.00000896;3156.28204899;4110.25640998;4404.23076958;4299.74358989;4602.56410333;4304.35897450;4172.30769217;4205.12820506
4203.33333327;4203.84615378;4631.15384699;4235.38461539;4797.94871913;2235.38461115;-0.00000896;-0.00000896;3156.66666438;4140.76923056;4567.30769301;4274.35897443;4598.71794949;4306.66666681;4173.46153833;4205.12820506
4204.35897429;4204.35897429;4372.17948746;4234.35897436;4399.48717984;2205.64102134;-0.00000896;-0.00000896;3154.35897207;4169.61538448;4500.12820569;4299.74358989;4236.66666667;4302.05128219;4173.71794858;4205.12820506
4204.87179481;4202.82051275;4074.35897402;4234.23076923;4368.97435926;2237.05127782;-0.00000896;-0.00000896;3157.05127976;4171.79487166;4471.15384664;4301.66666681;4237.17948718;4303.58974373;4173.71794858;4205.12820506
4204.99999993;4202.94871788;4471.28205177;4235.00000000;4503.97435953;2238.46153423;-0.00000896;-0.00000896;3156.66666438;4173.71794858;4372.82051310;4301.15384630;4238.07692308;4304.23076937;4173.46153833;4205.12820506
4206.28205122;4201.28205122;4466.15384664;4236.15384616;4730.64102669;2239.61538038;-0.00000896;-0.00000896;3158.58974130;4170.25641012;4760.00000112;4300.25641040;4430.76923119;4304.48717963;4173.46153833;4205.12820506
4205.25641019;4202.69230763;4304.61538476;4236.15384616;4433.58974401;2236.41025218;-0.00000896;-0.00000896;3188.07692086;4143.46153826;4303.71794886;4301.28205142;4239.74358975;4305.76923091;4173.58974345;4205.12820506
4205.12820506;4176.02564089;4501.79487235;4236.79487180;4668.20512911;2236.15384192;-0.00000896;-0.00000896;3188.58974137;4139.23076903;4305.76923091;4300.76923091;4175.76923063;4305.64102578;4172.05128192;4205.12820506
4202.05128199;4175.12820499;4630.76923161;4236.92307693;4498.46153902;2237.30768807;-0.00000896;-0.00000896;3187.94871573;4141.15384595;4398.97435933;4274.23076930;4367.43589772;4303.97435912;4173.33333320;4205.12820506
4202.43589737;4175.25641012;4436.79487222;4235.25641026;4694.35897534;2237.17948294;-0.00000896;-0.00000896;3158.84615156;4139.61538441;4530.38461601;4301.02564117;4337.05128226;4304.35897450;4172.43589730;4205.12820506
4201.92307686;4175.51282038;4432.43589786;4235.51282052;4631.41025725;2237.69230346;-0.00000896;-0.00000896;3157.43589515;4139.35897415;4599.87179564;4302.82051296;4401.28205163;4304.61538476;4173.33333320;4205.12820506
4203.58974352;4202.43589737;4633.84615468;4235.38461539;4661.79487270;2235.89743166;-0.00000896;-0.00000896;3183.71794650;4141.41025621;4370.64102592;4301.92307707;4070.76923043;4303.33333348;4201.66666660;4205.12820506
4203.58974352;4202.30769224;4303.84615399;4233.97435898;4335.89743611;2236.02563679;-0.00000896;-0.00000896;3183.71794650;4141.02564082;4070.76923043;4274.23076930;4531.53846217;4305.12820527;4173.71794858;4205.12820506
4203.71794865;4202.43589737;4404.48717984;4235.00000000;4400.25641061;2239.35897012;-0.00000896;-0.00000896;3158.07692079;4136.53846133;4435.89743632;4299.48717963;4464.10256459;4307.30769245;4173.71794858;4205.12820506
4203.58974352;4203.97435891;4463.84615434;4235.12820513;4401.53846189;2236.15384192;229.99999153;-0.00000896;3158.07692079;4135.89743569;4433.97435940;4274.74358982;4635.64102648;4304.87179501;4174.48717935;4205.12820506
4203.84615378;4202.43589737;4299.61538476;4208.58974352;4497.43589800;2236.41025218;229.99999153;-0.00000896;3158.33333104;4137.56410236;4240.12820513;4272.69230777;4467.94871844;4304.48717963;4173.71794858;4205.12820506
4203.84615378;4202.82051275;4274.35897443;4236.02564103;4141.15384595;2233.07691884;229.99999153;-0.00000896;3157.82051053;4141.15384595;4728.20512925;4273.58974366;4400.89743625;4302.56410271;4173.46153833;4205.12820506
4203.84615378;4203.07692301;4502.17948774;4235.51282052;4760.89743701;2237.94871371;229.99999153;-0.00000896;3157.30769002;4141.15384595;4267.17948725;4299.74358989;4566.92307762;4305.12820527;4173.33333320;4205.12820506
4205.25641019;4204.23076917;4500.25641082;4235.25641026;4471.53846203;2265.89743173;3.97435001;-0.00000896;3156.66666438;4141.02564082;4403.46153881;4301.15384630;4503.97435953;4303.20512835;4173.46153833;4205.12820506
4204.99999993;4205.12820506;4568.71794942;4234.61538462;4695.12820610;2233.97435474;-0.00000896;-0.00000896;3184.61538240;4141.41025621;4566.02564172;4274.48717956;4501.41025697;4304.48717963;4173.71794858;4205.12820506
4205.64102558;4203.07692301;4304.61538476;4234.10256411;4435.12820555;2232.17948294;229.99999153;-0.00000896;3186.53845932;4140.64102544;4207.69230763;4300.51282066;4207.17948711;4305.12820527;4173.97435884;4205.12820506
4204.74358968;4203.97435891;4503.20512876;4234.10256411;4729.35897541;2235.76922653;-0.00000896;-0.00000896;3188.33333111;4142.69230749;4370.76923105;4303.58974373;4110.64102537;4303.33333348;4173.71794858;4205.12820506
4203.33333327;4202.17948711;4399.23076958;4234.10256411;4537.30769294;2265.12820096;229.99999153;-0.00000896;3184.10256188;4141.66666646;4301.92307707;4274.61538469;4699.61538559;4303.33333348;4173.84615371;4205.12820506
4203.46153840;4203.58974352;4567.69230839;4207.82051275;4399.48717984;2237.30768807;-0.00000896;-0.00000896;3184.35897214;4143.33333313;4332.56410278;4300.51282066;4436.66666709;4306.53846168;4173.46153833;4205.12820506
4203.07692301;4203.46153840;4241.92307693;4207.30769224;4431.28205170;2206.66666236;229.99999153;-0.00000896;3189.35897214;4168.58974345;4370.51282079;4300.12820527;4300.64102578;4304.23076937;4172.56410243;4205.12820506
4201.92307686;4201.79487173;4438.20512863;4207.69230763;4300.25641040;2234.48717525;-0.00000896;-0.00000896;3188.97435675;4139.35897415;4533.58974422;4301.53846168;4699.74359072;4305.00000014;4175.25641012;4205.12820506
4201.66666660;4202.17948711;4437.94871837;4207.56410250;4661.02564193;2236.41025218;229.99999153;-0.00000896;3187.30769009;4169.61538448;4207.94871788;4301.53846168;4369.61538490;4305.64102578;4173.20512807;4205.12820506
4202.94871788;4202.69230763;4600.76923154;4234.10256411;4335.38461560;2237.56409833;-0.00000896;-0.00000896;3187.56410034;4139.74358954;4307.56410271;4273.97435905;4602.30769308;4303.84615399;4174.99999986;4205.12820506
4202.05128199;4202.69230763;4299.87179501;4235.00000000;4201.02564096;2237.56409833;229.99999153;-0.00000896;3188.58974137;4142.56410236;4266.66666674;4300.38461553;4270.64102571;4303.33333348;4173.84615371;4205.12820506
4201.53846147;4203.46153840;4597.30769308;4237.30769231;4404.61538497;2237.69230346;-0.00000896;-0.00000896;3185.76922855;4138.58974339;4208.58974352;4273.84615392;4502.69230825;4304.48717963;4170.76923063;4205.12820506
4202.30769224;4203.97435891;4370.89743618;4237.43589744;4400.38461574;2237.94871371;229.99999153;-0.00000896;3185.38461316;4141.15384595;4532.56410319;4274.74358982;4503.07692364;4303.97435912;4173.58974345;4205.12820506
4203.46153840;4204.61538455;4437.17948760;4235.51282052;4536.41025704;2239.87179064;-0.00000896;-0.00000896;3185.38461316;4140.89743569;4301.92307707;4274.74358982;4534.35897499;4303.97435912;4173.71794858;4205.12820506
4203.33333327;4204.99999993;4337.30769252;4234.87179488;4531.79487242;2239.74358551;229.99999153;-0.00000896;3184.48717727;4138.84615364;4303.71794886;4302.56410271;4435.25641068;4303.58974373;4173.97435884;4205.12820506
4203.07692301;4205.38461532;4433.84615427;4234.74358975;4534.74359037;2236.02563679;-0.00000896;-0.00000896;3184.10256188;4141.79487159;4369.61538490;4299.61538476;4665.38461629;4303.07692322;4173.84615371;4205.12820506
4203.58974352;4205.51282045;4665.89743680;4208.84615378;4732.69230874;2236.28204705;229.99999153;-0.00000896;3186.66666445;4143.46153826;4500.25641082;4274.61538469;4597.43589820;4306.53846168;4173.71794858;4205.12820506
4203.20512814;4205.76923070;4334.61538483;4235.51282052;4433.97435940;2236.66666243;-0.00000896;-0.00000896;3184.74358752;4141.79487159;4332.69230790;4302.17948732;4468.33333382;4304.74358989;4173.71794858;4205.12820506
4202.30769224;4204.61538455;4203.33333327;4236.02564103;4239.87179488;2239.35897012;229.99999153;-0.00000896;3184.35897214;4140.89743569;4077.43589709;4299.74358989;4405.12820548;4304.10256425;4173.97435884;4205.12820506
4203.07692301;4205.51282045;4436.66666709;4235.12820513;4696.53846252;2237.69230346;-0.00000896;-0.00000896;3157.43589515;4141.28205108;4402.69230804;4272.30769238;4500.89743646;4304.74358989;4174.23076910;4205.12820506
4204.74358968;4206.02564096;4859.48718081;4236.28205129;4661.15384706;2233.58973935;229.99999153;-0.00000896;3155.64102335;4171.41025628;4500.00000056;4274.48717956;4694.48718046;4304.35897450;4174.48717935;4205.12820506
4203.46153840;4205.76923070;4468.97435946;4234.48717949;4501.92307748;2234.61538038;-0.00000896;-0.00000896;3156.66666438;4175.89743576;4272.56410264;4302.82051296;4335.76923098;4304.23076937;4173.84615371;4205.12820506
4204.61538455;4204.99999993;4431.92307734;4234.10256411;4464.35897485;2239.35897012;229.99999153;-0.00000896;3154.74358745;4174.48717935;4534.74359037;4274.35897443;4241.66666667;4303.33333348;4173.84615371;4205.12820506
4207.30769224;4204.74358968;4468.71794921;4207.82051275;4563.71794942;2238.33332910;-0.00000896;-0.00000896;3155.38461310;4173.33333320;4301.02564117;4299.61538476;4531.15384678;4303.20512835;4173.84615371;4205.12820506
4207.69230763;4205.51282045;4499.35897492;4208.07692301;4601.15384692;2237.05127782;229.99999153;-0.00000896;3158.71794643;4172.56410243;4399.48717984;4300.89743604;4332.82051303;4306.02564117;4172.43589730;4205.12820506
4208.71794865;4205.64102558;4630.76923161;4208.71794865;4662.43589834;2237.43589320;-0.00000896;-0.00000896;3186.41025419;4173.07692294;4369.61538490;4274.74358982;4633.20512904;4304.35897450;4174.10256397;4205.12820506
4208.20512814;4204.23076917;4333.46153867;4233.84615385;4497.82051338;2234.74358551;229.99999153;-0.00000896;3186.66666445;4169.23076910;4763.97436009;4273.84615392;4467.43589793;4305.89743604;4174.23076910;4205.12820506
4208.33333327;4204.35897429;4300.12820527;4234.61538462;4403.07692343;2234.23076500;-0.00000896;-0.00000896;3185.25640804;4171.41025628;4597.43589820;4274.10256418;4403.20512856;4332.69230790;4173.84615371;4205.12820506
4207.82051275;4203.58974352;4403.58974394;4235.25641026;4368.33333362;2234.10255987;229.99999153;-0.00000896;3186.53845932;4175.89743576;4599.61538538;4274.10256418;4338.33333355;4305.12820527;4174.87179474;4205.12820506
4206.79487173;4203.20512814;4340.38461560;4234.10256411;4499.74359030;2239.48717525;1.53845258;-0.00000896;3187.69230547;4174.48717935;4299.74358989;4299.61538476;4136.28205108;4303.97435912;4173.58974345;4205.12820506
4206.28205122;4203.07692301;4274.48717956;4208.97435891;4400.12820548;2238.46153423;-0.00000896;-0.00000896;3187.69230547;4202.69230763;4136.79487159;4299.87179501;4437.43589786;4305.38461553;4173.97435884;4205.12820506
4206.28205122;4202.56410250;4631.41025725;4234.23076923;4832.30769356;2264.61538045;-0.00000896;-0.00000896;3189.35897214;4169.99999986;4403.84615420;4301.79487194;4104.87179460;4302.69230784;4174.10256397;4205.12820506
4204.61538455;4205.51282045;4071.66666632;4234.23076923;3909.23076854;2236.28204705;229.99999153;-0.00000896;3187.82051060;4172.56410243;4431.92307734;4301.66666681;4303.46153860;4304.23076937;4173.58974345;4205.12820506
4204.74358968;4204.87179481;4499.10256466;4234.48717949;4500.89743646;2235.38461115;229.99999153;-0.00000896;3186.92307470;4175.38461525;4504.35897492;4301.28205142;4532.56410319;4305.25641040;4173.71794858;4205.12820506
4204.87179481;4203.71794865;4568.84615454;4234.23076923;4466.92307741;2233.33332910;229.99999153;-0.00000896;3184.74358752;4201.53846147;4498.33333389;4301.41025655;4698.58974457;4305.00000014;4173.71794858;4205.12820506
4204.74358968;4202.56410250;4272.30769238;4236.15384616;4437.17948760;2234.23076500;229.99999153;-0.00000896;3158.07692079;4173.84615371;4206.66666660;4300.89743604;4401.92307727;4302.56410271;4174.35897422;4205.12820506
4204.48717942;4202.94871788;4498.46153902;4236.15384616;4334.48717970;2238.07691884;-0.00000896;-0.00000896;3158.33333104;4171.92307679;4436.28205170;4301.02564117;4628.71794956;4303.33333348;4173.84615371;4205.12820506
4204.87179481;4203.20512814;4300.89743604;4236.15384616;4307.43589758;2236.02563679;-0.00000896;-0.00000896;3184.61538240;4173.07692294;4536.92307755;4273.58974366;4307.43589758;4305.89743604;4174.10256397;4205.12820506
4204.74358968;4202.17948711;4433.33333375;4235.89743590;4338.71794893;2233.33332910;-0.00000896;-0.00000896;3185.12820291;4171.53846140;4537.05128268;4301.66666681;4496.92307748;4305.64102578;4173.84615371;4205.12820506
4203.46153840;4201.41025634;4274.48717956;4237.30769231;4302.17948732;2237.05127782;-0.00000896;-0.00000896;3157.82051053;4171.41025628;4367.82051310;4274.35897443;4241.92307693;4303.58974373;4201.66666660;4205.12820506
4203.58974352;4176.28205115;4300.51282066;4235.25641026;4433.58974401;2237.69230346;-0.00000896;-0.00000896;3152.43589515;4169.99999986;4733.71794976;4300.00000014;4433.33333375;4306.92307707;4173.84615371;4205.12820506
4204.35897429;4202.56410250;4498.46153902;4234.23076923;4271.02564110;2235.51281628;-0.00000896;-0.00000896;3153.84615156;4173.07692294;4371.41025669;4302.05128219;4399.35897471;4303.58974373;4173.84615371;4205.12820506
4204.35897429;4202.30769224;4301.28205142;4234.74358975;4299.87179501;2232.56409833;-0.00000896;-0.00000896;3156.66666438;4173.33333320;4338.20512842;4302.43589758;4602.05128282;4306.15384630;4173.07692294;4205.12820506
4203.71794865;4201.53846147;4268.84615392;4233.84615385;4398.71794907;2234.10255987;-0.00000896;-0.00000896;3157.94871566;4171.92307679;4268.20512828;4300.51282066;4437.17948760;4304.87179501;4174.10256397;4205.12820506
4204.10256404;4201.41025634;4236.41025641;4208.58974352;4400.76923112;2238.58973935;-0.00000896;-0.00000896;3156.28204899;4143.20512800;4466.15384664;4301.41025655;4562.56410326;4304.61538476;4174.48717935;4205.12820506
4204.10256404;4201.28205122;4432.56410298;4207.17948711;4662.30769321;2237.94871371;-0.00000896;-0.00000896;3154.99999771;4141.28205108;4667.17948809;4301.53846168;4501.15384671;4303.84615399;4174.48717935;4205.12820506
4203.20512814;4201.66666660;4268.97435905;4205.76923070;4300.76923091;2235.76922653;-0.00000896;-0.00000896;3157.17948489;4142.94871774;4567.05128275;4300.64102578;4207.94871788;4305.64102578;4173.84615371;4205.12820506
4204.23076917;4203.07692301;4238.97435898;4204.48717942;4398.33333368;2236.15384192;-0.00000896;-0.00000896;3157.30769002;4174.35897422;4173.07692294;4299.87179501;4077.43589709;4304.61538476;4173.97435884;4205.12820506
4203.84615378;4204.23076917;4530.00000063;4204.10256404;4597.56410333;2235.38461115;-0.00000896;-0.00000896;3158.71794643;4171.53846140;4602.94871872;4299.61538476;4336.92307714;4305.51282066;4175.38461525;4205.12820506
4204.48717942;4203.20512814;4569.74359044;4205.25641019;4728.71794976;2234.35897012;-0.00000896;-0.00000896;3185.64102342;4171.15384602;4630.51282135;4274.61538469;4498.84615441;4305.76923091;4173.46153833;4205.12820506
4206.79487173;4201.53846147;4174.23076910;4205.64102558;4438.58974401;2238.20512397;-0.00000896;-0.00000896;3187.94871573;4170.12820499;4465.51282100;4299.61538476;4236.15384616;4305.89743604;4173.58974345;4205.12820506
4204.99999993;4203.71794865;4206.79487173;4205.12820506;4274.74358982;2234.99999577;-0.00000896;-0.00000896;3189.35897214;4139.87179467;4372.82051310;4301.92307707;4695.38461636;4303.84615399;4173.58974345;4205.12820506
4204.61538455;4204.61538455;4338.20512842;4206.53846147;4568.97435967;2239.23076500;-0.00000896;-0.00000896;3188.71794650;4141.41025621;4404.35897471;4299.48717963;4170.38461525;4303.84615399;4173.20512807;4205.12820506
4204.61538455;4204.35897429;4467.94871844;4206.28205122;4728.97436002;2236.02563679;-0.00000896;-0.00000896;3189.35897214;4143.33333313;4732.30769335;4302.69230784;4534.87179550;4304.61538476;4173.20512807;4205.12820506
4203.71794865;4204.87179481;4208.46153840;4207.17948711;4470.64102613;2237.82050859;-0.00000896;-0.00000896;3189.87179265;4171.28205115;4370.38461567;4301.41025655;4174.87179474;4303.84615399;4174.23076910;4205.12820506
4203.84615378;4203.84615378;4434.74359016;4208.07692301;4498.20512876;2239.35897012;-0.00000896;-0.00000896;3186.53845932;4171.79487166;4201.92307686;4300.51282066;4534.10256473;4304.23076937;4172.69230756;4205.12820506
4202.82051275;4205.89743583;4241.79487180;4207.94871788;4170.12820499;2236.53845730;-0.00000896;-0.00000896;3185.51281829;4169.61538448;3977.05128150;4301.02564117;4401.02564138;4302.69230784;4173.97435884;4205.12820506
4202.94871788;4205.89743583;4304.35897450;4207.82051275;4469.87179536;2234.35897012;-0.00000896;-0.00000896;3189.35897214;4169.35897422;4371.15384644;4302.17948732;4304.10256425;4304.10256425;4173.46153833;4205.12820506
4203.20512814;4204.99999993;4564.87179557;4207.82051275;4696.53846252;2234.35897012;-0.00000896;-0.00000896;3217.69230554;4171.53846140;4502.82051338;4270.51282059;4403.20512856;4303.71794886;4174.10256397;4205.12820506
4201.28205122;4204.48717942;4303.20512835;4208.58974352;4339.48717970;2233.46153423;-0.00000896;-0.00000896;3189.61538240;4142.82051262;4635.51282135;4301.28205142;4466.79487229;4304.87179501;4174.23076910;4205.12820506
4201.79487173;4203.84615378;4300.64102578;4234.74358975;4274.74358982;2231.92307269;229.99999153;-0.00000896;3190.12820291;4168.97435884;4503.84615441;4300.76923091;4236.66666667;4305.25641040;4174.10256397;4205.12820506
4201.66666660;4203.58974352;4175.76923063;4235.64102564;4335.00000021;2233.84614961;-0.00000896;-0.00000896;3189.61538240;4172.17948704;4366.66666695;4273.46153853;4268.20512828;4306.02564117;4174.61538448;4205.12820506
4201.53846147;4203.97435891;4372.94871823;4234.10256411;4502.94871851;2236.79486756;1.79486283;-0.00000896;3186.28204906;4143.33333313;4635.76923161;4300.76923091;4371.92307720;4303.20512835;4173.84615371;4205.12820506
4176.15384602;4204.87179481;4430.76923119;4207.17948711;4398.07692343;2233.33332910;-0.00000896;-0.00000896;3184.99999778;4172.94871781;4632.56410340;4301.02564117;4534.48718012;4303.84615399;4174.61538448;4172.30769217
4175.38461525;4204.48717942;4304.74358989;4205.64102558;4468.84615434;2206.66666236;229.99999153;-0.00000896;3185.51281829;4170.64102551;4307.43589758;4300.25641040;4569.87179557;4302.69230784;4175.38461525;4172.30769217
4176.28205115;4204.87179481;4631.79487263;4205.38461532;4405.64102599;2206.41025211;229.99999153;-0.00000896;3187.30769009;4170.64102551;4299.74358989;4302.69230784;4332.56410278;4303.33333348;4174.23076910;4172.30769217
4201.66666660;4205.25641019;4109.23076896;4206.15384609;4235.25641026;2204.23076493;229.99999153;-0.00000896;3189.74358752;4174.10256397;4533.84615448;4300.12820527;4301.79487194;4304.61538476;4174.10256397;4205.12820506
4175.64102551;4205.51282045;4239.10256411;4205.25641019;4333.07692329;2232.69230346;229.99999153;-0.00000896;3190.76922855;4173.97435884;4235.76923077;4300.89743604;4137.30769210;4303.71794886;4174.23076910;4172.30769217
4174.74358961;4205.64102558;4431.79487222;4205.76923070;4471.41025690;2205.76922646;229.99999153;-0.00000896;3188.71794650;4172.94871781;4665.25641116;4300.38461553;4405.64102599;4303.46153860;4174.48717935;4172.30769217
4174.87179474;4205.64102558;4531.53846217;4204.48717942;4693.33333431;2205.89743159;229.99999153;-0.00000896;3188.33333111;4202.94871788;4339.23076944;4304.74358989;4172.30769217;4304.10256425;4173.71794858;4172.30769217
4175.76923063;4204.87179481;4272.82051289;4204.23076917;4302.43589758;2204.87179057;229.99999153;-0.00000896;3188.58974137;4174.48717935;4632.30769315;4303.33333348;4338.46153867;4303.33333348;4175.25641012;4172.30769217
4201.66666660;4205.25641019;4338.71794893;4204.61538455;4470.12820562;2206.02563672;229.99999153;-0.00000896;3189.61538240;4202.05128199;4203.58974352;4299.61538476;4305.12820527;4302.43589758;4173.97435884;4205.12820506
4201.15384609;4205.64102558;4371.28205156;4205.51282045;4269.87179495;2206.92307262;229.99999153;-0.00000896;3190.51281829;4203.20512814;4534.48718012;4301.15384630;4499.74359030;4302.69230784;4174.35897422;4205.12820506
4202.30769224;4204.99999993;4434.61538504;4202.82051275;4469.74359023;2233.84614961;229.99999153;-0.00000896;3218.07692093;4201.53846147;4662.56410347;4301.02564117;4496.92307748;4301.92307707;4174.35897422;4205.12820506
4202.05128199;4206.53846147;4266.92307700;4204.23076917;4206.92307686;2201.79486749;229.99999153;-0.00000896;3220.76922862;4175.38461525;4365.51282079;4303.33333348;4402.82051317;4303.46153860;4174.74358961;4205.12820506
4176.15384602;4206.79487173;4368.97435926;4202.56410250;4405.25641061;2204.35897005;229.99999153;-0.00000896;3222.43589529;4201.28205122;4434.35897478;4301.15384630;4596.15384692;4302.30769245;4174.23076910;4172.30769217
4202.43589737;4205.89743583;4238.58974359;4202.05128199;4333.71794893;2206.41025211;229.99999153;-0.00000896;3222.30769016;4204.74358968;4726.79487284;4303.07692322;4366.53846182;4302.94871809;4174.87179474;4205.12820506
4201.15384609;4205.64102558;4497.17948774;4203.71794865;4601.53846231;2238.07691884;229.99999153;-0.00000896;3218.33333118;4203.84615378;4726.66666771;4301.02564117;4568.58974429;4302.82051296;4174.48717935;4205.12820506
4203.20512814;4207.05128199;4173.46153833;4201.92307686;4208.20512814;2235.12820089;229.99999153;-0.00000896;3221.53845939;4202.56410250;4400.64102599;4273.71794879;4107.82051255;4302.56410271;4174.35897422;4205.12820506
4202.56410250;4207.05128199;4533.33333396;4202.05128199;4437.05128247;2202.05127775;229.99999153;-0.00000896;3223.71794657;4204.48717942;4171.66666653;4302.05128219;4403.97435933;4301.41025655;4175.12820499;4205.12820506
4201.53846147;4205.12820506;4272.43589751;4201.66666660;4533.07692371;2200.76922646;229.99999153;-0.00000896;3222.43589529;4205.12820506;4269.48717956;4301.53846168;4373.07692336;4302.94871809;4174.87179474;4205.12820506
4202.17948711;4205.38461532;4529.48718012;4202.05128199;4502.43589800;2203.20512390;229.99999153;-0.00000896;3219.35897221;4203.33333327;4398.46153881;4300.25641040;4798.07692426;4301.28205142;4176.28205115;4205.12820506
4203.97435891;4205.76923070;4367.82051310;4202.43589737;4496.92307748;2203.58973929;229.99999153;-0.00000896;3219.35897221;4205.64102558;4338.33333355;4301.92307707;4566.15384685;4300.76923091;4174.99999986;4205.12820506
4203.84615378;4205.38461532;4339.48717970;4203.07692301;3945.25640963;2203.33332903;229.99999153;-0.00000896;3219.35897221;4205.64102558;4500.00000056;4300.12820527;4433.97435940;4303.46153860;4174.61538448;4205.12820506
4204.48717942;4206.28205122;4271.02564110;4203.46153840;4567.30769301;2206.28204698;229.99999153;-0.00000896;3220.12820298;4207.82051275;4136.02564082;4302.30769245;4431.66666709;4301.15384630;4174.74358961;4205.12820506
4205.38461532;4207.30769224;4500.00000056;4203.46153840;4567.43589813;2202.05127775;229.99999153;-0.00000896;3249.35897228;4206.15384609;4433.97435940;4301.02564117;4466.28205177;4301.41025655;4174.61538448;4205.12820506
4204.61538455;4206.92307686;4729.10256515;4202.82051275;4695.76923175;2202.43589313;229.99999153;-0.00000896;3253.46153638;4204.35897429;4498.46153902;4304.61538476;4499.74359030;4303.58974373;4174.99999986;4205.12820506
4204.99999993;4207.17948711;4306.15384630;4202.82051275;4366.41025669;2204.35897005;229.99999153;-0.00000896;3256.66666459;4207.30769224;4405.76923112;4300.25641040;4139.99999980;4302.56410271;4174.87179474;4205.12820506
4204.10256404;4206.79487173;4269.23076930;4202.43589737;4563.33333403;2206.92307262;229.99999153;-0.00000896;3254.87179279;4201.15384609;4529.74359037;4274.48717956;4208.20512814;4302.69230784;4201.66666660;4205.12820506
4204.61538455;4207.94871788;4601.15384692;4203.33333327;4467.94871844;2206.41025211;229.99999153;-0.00000896;3253.84615177;4204.74358968;4273.97435905;4301.02564117;4498.07692364;4305.51282066;4174.99999986;4205.12820506
4204.10256404;4208.20512814;4662.30769321;4205.64102558;4471.66666716;2200.51281621;229.99999153;-0.00000896;3255.89743382;4201.92307686;4497.82051338;4300.89743604;4431.79487222;4301.41025655;4174.87179474;4205.12820506
4205.51282045;4208.58974352;4564.87179557;4206.02564096;4633.20512904;2203.84614954;229.99999153;-0.00000896;3255.89743382;4236.92307693;4372.94871823;4302.05128219;4431.53846196;4299.61538476;4174.87179474;4205.12820506
