Gyro-X;Gyro-Z;AF3;Gyro-Y;T7;Acc-X;Pz;QualityData_1;QualityData_2;Acc-Z;Acc-Y;T8;Mag-X;AF4;Mag-Z;Mag-Y;Mag-X;Gyro-X 
4207.43589737;4201.79487173;4339.87179508;4208.20512814;4433.84615427;2073.97435439;229.99999153;-0.00000896;4729.35897541;4597.30769308;3552.30769085;4305.76923091;4796.41025760;4140.89743569;4110.64102537;4205.12820506
4205.76923070;4203.07692301;4432.94871837;4208.46153840;4500.38461594;2073.71794414;229.99999153;-0.00000896;4728.84615489;4595.12820590;3519.23076771;4306.41025655;4760.12820624;4138.71794851;4136.28205108;4205.12820506
4206.41025634;4202.94871788;4405.38461574;4233.97435898;4471.66666716;2072.17948260;8212.43590585;-0.00000896;4730.38461643;4600.89743667;3613.58974227;4306.66666681;4762.82051394;4139.74358954;4136.53846133;4205.12820506
4205.89743583;4202.69230763;4337.56410278;4209.10256404;4435.51282093;2074.10255952;8271.92308547;-0.00000896;4731.79487284;4599.74359051;3486.92307533;4307.43589758;4759.23077035;4143.20512800;4136.66666646;4205.12820506
4205.25641019;4201.66666660;4370.76923105;4235.00000000;4496.41025697;2073.97435439;229.99999153;-0.00000896;4731.53846258;4599.10256487;3550.25640880;4307.43589758;4663.58974450;4140.64102544;4137.17948697;4205.12820506
4205.25641019;4201.79487173;4333.84615406;4234.61538462;4405.51282086;2071.92307234;8271.92308547;-0.00000896;4730.12820617;4596.02564179;3549.61538316;4306.92307707;4695.64102662;4141.92307672;4136.66666646;4205.12820506
4204.61538455;4204.35897429;4334.10256431;4234.10256411;4438.46153888;2072.30768773;229.99999153;-0.00000896;4730.25641130;4598.84615461;3479.35897276;4332.82051303;4701.15384713;4140.51282031;4136.79487159;4205.12820506
4205.25641019;4203.71794865;4332.56410278;4234.48717949;4432.82051324;2071.79486721;8271.92308547;-0.00000896;4731.28205233;4600.64102641;3551.28204983;4307.17948732;4728.46153951;4139.61538441;4136.79487159;4205.12820506
4205.25641019;4203.84615378;4338.07692329;4208.58974352;4438.58974401;2070.38461080;229.99999153;-0.00000896;4731.15384720;4597.05128282;3516.53846001;4307.56410271;4730.89743694;4142.05128185;4136.66666646;4205.12820506
4204.99999993;4203.71794865;4335.00000021;4209.10256404;4436.53846196;2069.87179029;8271.92308547;-0.00000896;4733.33333438;4627.82051366;3514.99999848;4306.41025655;4699.23077021;4141.41025621;4135.64102544;4205.12820506
4205.51282045;4203.33333327;4370.89743618;4233.97435898;4464.10256459;2067.82050824;229.99999153;-0.00000896;4731.79487284;4628.84615468;3481.92307533;4307.43589758;4667.43589834;4142.05128185;4136.79487159;4205.12820506
4205.64102558;4202.69230763;4333.84615406;4207.94871788;4496.41025697;2069.74358516;8271.92308547;-0.00000896;4733.46153951;4628.33333417;3552.69230624;4306.53846168;4595.51282128;4141.53846133;4136.92307672;4205.12820506
4205.76923070;4201.79487173;4368.71794900;4207.30769224;4434.48717991;2073.46153388;229.99999153;-0.00000896;4731.53846258;4602.30769308;3513.20512668;4334.48717970;4634.23077007;4140.38461518;4136.66666646;4205.12820506
4205.38461532;4202.43589737;4332.43589765;4207.94871788;4403.07692343;2071.79486721;8271.92308547;-0.00000896;4731.02564207;4599.10256487;3512.94871642;4332.69230790;4662.94871886;4141.66666646;4136.92307672;4205.12820506
4205.89743583;4201.79487173;4334.10256431;4207.69230763;4402.17948753;2072.30768773;229.99999153;-0.00000896;4732.30769335;4599.87179564;3453.97435731;4332.82051303;4668.07692398;4141.66666646;4136.92307672;4205.12820506
4206.41025634;4201.66666660;4437.17948760;4208.84615378;4497.69230825;2069.87179029;8271.92308547;-0.00000896;4733.33333438;4630.51282135;3417.69230596;4306.02564117;4662.94871886;4140.25641005;4135.76923056;4205.12820506
4205.64102558;4202.05128199;4335.51282073;4208.33333327;4401.41025676;2072.56409798;229.99999153;-0.00000896;4733.46153951;4599.23077000;3451.66666500;4306.92307707;4599.35897513;4141.79487159;4136.53846133;4205.12820506
4205.76923070;4201.41025634;4466.41025690;4208.71794865;4470.12820562;2073.33332875;8271.92308547;-0.00000896;4733.71794976;4596.92307769;3480.51281892;4332.69230790;4631.28205212;4140.38461518;4135.76923056;4205.12820506
4205.76923070;4202.56410250;4335.76923098;4209.10256404;4371.92307720;2071.66666208;229.99999153;-0.00000896;4733.33333438;4597.43589820;3485.89743430;4306.92307707;4632.56410340;4142.17948697;4136.92307672;4205.12820506
4206.02564096;4202.82051275;4371.92307720;4209.10256404;4433.33333375;2072.94871337;8271.92308547;-0.00000896;4732.05128310;4632.56410340;3449.35897270;4332.56410278;4664.10256501;4142.17948697;4136.92307672;4205.12820506
4205.64102558;4201.92307686;4433.46153888;4235.25641026;4434.87179529;2073.07691849;229.99999153;-0.00000896;4732.82051387;4628.46153930;3484.10256251;4305.64102578;4695.12820610;4138.46153826;4139.74358954;4205.12820506
4204.23076917;4201.79487173;4536.66666730;4208.07692301;4369.10256438;2042.82050817;-0.00000896;-0.00000896;4730.51282156;4600.51282128;3353.46153659;4307.43589758;4696.79487277;4140.64102544;4136.02564082;4205.12820506
4204.61538455;4201.92307686;4531.41025704;4209.10256404;4336.28205149;2073.20512362;-0.00000896;-0.00000896;4729.74359079;4599.35897513;3446.15384449;4306.53846168;4661.66666757;4141.66666646;4136.53846133;4205.12820506
4205.25641019;4202.82051275;4562.43589813;4233.84615385;4337.94871816;2101.53845703;-0.00000896;-0.00000896;4728.07692412;4597.56410333;3387.30769050;4306.53846168;4701.15384713;4140.38461518;4137.94871774;4205.12820506
4206.41025634;4202.30769224;4497.05128261;4234.74358975;4303.46153860;2074.61538003;-0.00000896;-0.00000896;4730.38461643;4596.41025718;3388.33333153;4306.79487194;4660.76923168;4141.79487159;4136.79487159;4205.12820506
4205.25641019;4202.69230763;4530.00000063;4208.46153840;4334.10256431;2073.58973901;-0.00000896;-0.00000896;4731.53846258;4596.92307769;3447.43589577;4305.76923091;4694.87179585;4140.51282031;4137.05128185;4205.12820506
4203.97435891;4201.92307686;4468.20512870;4209.10256404;4366.53846182;2071.28204670;-0.00000896;-0.00000896;4731.53846258;4599.87179564;3415.51281878;4306.79487194;4661.02564193;4139.74358954;4139.74358954;4205.12820506
4204.10256404;4202.56410250;4533.46153909;4233.84615385;4337.69230790;2073.33332875;-0.00000896;-0.00000896;4731.53846258;4601.28205205;3351.79486992;4304.74358989;4697.69230867;4141.15384595;4136.92307672;4205.12820506
4204.10256404;4201.79487173;4503.58974415;4234.23076923;4369.48717977;2074.23076465;-0.00000896;-0.00000896;4727.56410361;4596.15384692;3479.61538302;4305.89743604;4664.35897527;4140.51282031;4137.05128185;4205.12820506
4203.71794865;4203.58974352;4499.74359030;4233.97435898;4272.56410264;2070.25640567;-0.00000896;-0.00000896;4728.71794976;4595.64102641;3355.12820326;4306.02564117;4732.43589848;4141.92307672;4136.79487159;4205.12820506
4204.74358968;4203.20512814;4497.94871851;4234.23076923;4334.10256431;2100.89743138;-0.00000896;-0.00000896;4760.89743701;4568.33333403;3479.99999841;4305.64102578;4726.79487284;4140.89743569;4137.30769210;4205.12820506
4203.84615378;4204.10256404;4496.79487235;4235.00000000;4332.56410278;2070.51281593;-0.00000896;-0.00000896;4759.74359086;4602.17948795;3449.23076757;4305.89743604;4730.51282156;4140.12820492;4136.92307672;4205.12820506
4205.12820506;4203.84615378;4468.97435946;4208.71794865;4301.79487194;2071.02563644;229.99999153;-0.00000896;4733.97436002;4601.02564179;3414.74358801;4306.28205142;4698.07692405;4141.28205108;4136.92307672;4205.12820506
4204.74358968;4203.20512814;4503.07692364;4235.00000000;4336.15384637;2073.20512362;229.99999153;-0.00000896;4733.07692412;4631.15384699;3449.48717782;4333.84615406;4695.12820610;4141.41025621;4139.87179467;4205.12820506
4205.12820506;4202.56410250;4467.94871844;4235.76923077;4303.20512835;2072.69230311;229.99999153;-0.00000896;4733.20512925;4600.12820590;3415.64102391;4306.28205142;4661.92307783;4140.12820492;4136.41025621;4205.12820506
4205.89743583;4202.82051275;4562.43589813;4235.00000000;4339.48717970;2073.07691849;229.99999153;-0.00000896;4733.71794976;4599.35897513;3420.89743416;4333.71794893;4727.05128310;4139.87179467;4136.92307672;4205.12820506
4204.99999993;4202.82051275;4531.79487242;4236.15384616;4367.43589772;2072.69230311;37.43588855;-0.00000896;4732.69230874;4598.33333410;3446.53845987;4333.20512842;4663.84615475;4141.41025621;4137.17948697;4205.12820506
4205.25641019;4202.82051275;4562.56410326;4235.51282052;4366.53846182;2072.56409798;8275.51282906;-0.00000896;4732.56410361;4602.17948795;3449.48717782;4332.82051303;4697.69230867;4140.25641005;4136.02564082;4205.12820506
4206.66666660;4201.28205122;4566.15384685;4237.82051282;4402.05128240;2042.82050817;229.99999153;-0.00000896;4733.58974464;4600.12820590;3388.58974179;4305.64102578;4664.74359065;4141.15384595;4136.92307672;4205.12820506
4206.41025634;4201.15384609;4471.53846203;4235.89743590;4365.76923105;2073.33332875;8275.51282906;-0.00000896;4731.53846258;4600.00000077;3485.89743430;4332.30769252;4628.33333417;4139.35897415;4136.66666646;4205.12820506
4205.89743583;4203.07692301;4500.38461594;4237.30769231;4369.74359003;2071.79486721;229.99999153;-0.00000896;4732.69230874;4568.97435967;3516.41025489;4333.84615406;4668.46153937;4140.89743569;4136.66666646;4205.12820506
4204.48717942;4202.05128199;4469.87179536;4236.66666667;4365.12820541;2072.17948260;8275.51282906;-0.00000896;4732.43589848;4600.89743667;3484.10256251;4306.15384630;4668.33333424;4140.38461518;4137.05128185;4205.12820506
4205.51282045;4202.82051275;4532.17948781;4235.12820513;4367.17948746;2072.30768773;229.99999153;-0.00000896;4731.41025746;4601.02564179;3517.82051130;4332.30769252;4661.41025732;4139.35897415;4136.92307672;4205.12820506
4205.38461532;4202.17948711;4533.58974422;4234.48717949;4367.82051310;2072.05127747;8275.51282906;-0.00000896;4730.51282156;4600.76923154;3517.94871642;4332.30769252;4665.38461629;4141.15384595;4137.05128185;4205.12820506
4204.35897429;4202.94871788;4535.89743653;4236.53846154;4369.74359003;2070.64102106;229.99999153;-0.00000896;4729.35897541;4602.30769308;3486.02563943;4305.25641040;4628.71794956;4140.64102544;4109.99999973;4205.12820506
4204.48717942;4204.23076917;4500.64102620;4235.25641026;4365.64102592;2075.38461080;8275.51282906;-0.00000896;4726.92307797;4599.87179564;3513.84615232;4307.56410271;4634.10256494;4141.15384595;4135.64102544;4205.12820506
4205.25641019;4203.20512814;4503.33333389;4208.20512814;4372.05128233;2071.02563644;229.99999153;-0.00000896;4730.25641130;4600.64102641;3514.23076771;4334.23076944;4661.92307783;4139.35897415;4136.79487159;4205.12820506
4205.25641019;4202.43589737;4499.35897492;4208.46153840;4337.82051303;2068.33332875;8275.51282906;-0.00000896;4731.41025746;4600.38461615;3479.74358815;4306.02564117;4667.82051373;4139.48717928;4110.64102537;4205.12820506
4205.89743583;4175.89743576;4500.00000056;4208.07692301;4340.12820534;2068.46153388;229.99999153;-0.00000896;4731.92307797;4601.79487256;3517.17948565;4333.07692329;4602.17948795;4140.12820492;4136.92307672;4205.12820506
4205.76923070;4175.64102551;4504.35897492;4235.51282052;4369.48717977;2073.71794414;8275.51282906;-0.00000896;4730.12820617;4599.87179564;3514.99999848;4305.64102578;4631.15384699;4140.76923056;4139.23076903;4205.12820506
4204.87179481;4202.17948711;4465.89743639;4234.61538462;4337.82051303;2075.64102106;229.99999153;-0.00000896;4730.12820617;4596.41025718;3546.15384470;4306.53846168;4634.23077007;4141.28205108;4136.41025621;4205.12820506
4204.35897429;4202.17948711;4468.07692357;4234.74358975;4371.15384644;2072.69230311;8275.51282906;-0.00000896;4731.66666771;4602.17948795;3484.23076764;4305.25641040;4632.43589827;4139.74358954;4136.79487159;4205.12820506
4203.97435891;4203.84615378;4532.30769294;4235.76923077;4403.07692343;2075.38461080;229.99999153;-0.00000896;4732.82051387;4601.79487256;3515.51281899;4305.76923091;4662.05128296;4140.89743569;4137.05128185;4205.12820506
4204.23076917;4202.94871788;4532.17948781;4235.38461539;4339.87179508;2073.33332875;8275.51282906;-0.00000896;4731.41025746;4598.33333410;3418.33333160;4306.79487194;4665.25641116;4140.64102544;4136.79487159;4205.12820506
4203.33333327;4201.53846147;4465.25641075;4234.87179488;4372.43589772;2101.02563651;229.99999153;-0.00000896;4729.48718053;4598.84615461;3519.23076771;4332.30769252;4600.12820590;4141.15384595;4136.79487159;4205.12820506
4202.69230763;4202.56410250;4471.53846203;4235.38461539;4339.48717970;2074.87179029;8275.51282906;-0.00000896;4728.84615489;4598.84615461;3512.82051130;4306.15384630;4663.20512911;4139.99999980;4136.66666646;4205.12820506
4204.61538455;4202.56410250;4465.89743639;4234.61538462;4367.05128233;2071.79486721;229.99999153;-0.00000896;4728.07692412;4598.07692385;3546.28204983;4306.28205142;4632.94871879;4140.25641005;4135.64102544;4205.12820506
4204.48717942;4202.94871788;4502.82051338;4208.71794865;4366.53846182;2070.89743132;8275.51282906;-0.00000896;4729.61538566;4596.41025718;3480.25640866;4307.17948732;4602.17948795;4140.51282031;4136.66666646;4205.12820506
4204.35897429;4202.30769224;4530.00000063;4233.97435898;4372.56410285;2068.33332875;229.99999153;-0.00000896;4730.89743694;4599.61538538;3550.76922931;4307.05128219;4664.48718039;4138.84615364;4135.38461518;4205.12820506
4205.51282045;4202.69230763;4465.76923126;4208.07692301;4340.00000021;2071.15384157;8275.51282906;-0.00000896;4733.84615489;4600.00000077;3486.41025482;4304.35897450;4599.61538538;4138.33333313;4136.92307672;4205.12820506
4205.38461532;4175.89743576;4471.02564152;4234.48717949;4338.97435919;2072.56409798;229.99999153;-0.00000896;4732.05128310;4599.74359051;3517.30769078;4305.76923091;4665.12820604;4140.76923056;4136.02564082;4205.12820506
4206.02564096;4202.17948711;4496.53846210;4207.82051275;4334.10256431;2070.76922619;8275.51282906;-0.00000896;4733.46153951;4598.58974436;3545.25640880;4307.17948732;4632.17948802;4140.89743569;4136.79487159;4205.12820506
4205.51282045;4201.53846147;4438.71794914;4208.07692301;4369.61538490;2068.84614926;229.99999153;-0.00000896;4734.23077028;4602.30769308;3546.15384470;4304.61538476;4693.71794969;4140.76923056;4136.79487159;4205.12820506
4204.48717942;4201.79487173;4435.00000042;4208.20512814;4333.97435919;2072.94871337;8275.51282906;-0.00000896;4733.33333438;4598.84615461;3485.51281892;4304.87179501;4667.69230860;4139.35897415;4136.79487159;4205.12820506
4205.64102558;4176.28205115;4469.48717998;4207.69230763;4367.82051310;2072.69230311;229.99999153;-0.00000896;4733.84615489;4597.69230846;3519.48717796;4307.05128219;4697.43589841;4139.74358954;4137.05128185;4205.12820506
4204.35897429;4202.94871788;4464.61538511;4208.07692301;4333.07692329;2071.28204670;8304.48718811;-0.00000896;4760.38461650;4595.76923154;3453.97435731;4307.05128219;4727.69230874;4141.92307672;4136.53846133;4205.12820506
4204.61538455;4202.17948711;4438.20512863;4207.94871788;4338.07692329;2073.97435439;132.17947850;-0.00000896;4760.25641137;4597.05128282;3482.05128046;4305.89743604;4668.20512911;4138.97435877;4136.92307672;4205.12820506
4204.23076917;4202.05128199;4499.61538518;4208.07692301;4365.76923105;2073.07691849;131.79486311;-0.00000896;4759.74359086;4597.30769308;3581.79487041;4332.43589765;4732.05128310;4138.71794851;4136.66666646;4205.12820506
4204.61538455;4202.94871788;4434.48717991;4207.82051275;4365.64102592;2073.84614926;229.99999153;-0.00000896;4759.35897547;4596.02564179;3516.53846001;4306.92307707;4597.94871872;4141.66666646;4137.17948697;4205.12820506
4205.12820506;4203.84615378;4498.84615441;4209.10256404;4368.58974387;2071.79486721;229.99999153;-0.00000896;4732.30769335;4595.38461615;3551.66666521;4306.41025655;4668.46153937;4138.84615364;4137.17948697;4205.12820506
4204.87179481;4201.92307686;4529.74359037;4208.84615378;4338.71794893;2072.56409798;229.99999153;-0.00000896;4759.87179599;4596.28205205;3513.07692155;4306.53846168;4635.64102648;4140.12820492;4137.17948697;4205.12820506
4204.48717942;4203.07692301;4434.87179529;4234.61538462;4340.00000021;2071.02563644;229.99999153;-0.00000896;4759.74359086;4628.84615468;3550.38461393;4307.05128219;4694.48718046;4138.58974339;4136.92307672;4205.12820506
4204.87179481;4203.33333327;4471.28205177;4233.97435898;4339.48717970;2074.10255952;-0.00000896;-0.00000896;4759.61538573;4629.74359058;3483.07692148;4307.43589758;4698.46153944;4139.23076903;4136.53846133;4205.12820506
4205.51282045;4202.82051275;4465.51282100;4235.89743590;4337.17948739;2071.15384157;-0.00000896;-0.00000896;4734.23077028;4596.92307769;3519.48717796;4306.15384630;4700.00000098;4140.76923056;4136.53846133;4205.12820506
4205.89743583;4202.05128199;4463.97435946;4235.64102564;4371.66666695;2069.87179029;-0.00000896;-0.00000896;4759.10256522;4599.74359051;3480.64102405;4306.28205142;4666.41025732;4140.89743569;4136.79487159;4205.12820506
4206.79487173;4201.41025634;4437.43589786;4234.48717949;4371.28205156;2071.66666208;-0.00000896;-0.00000896;4733.97436002;4600.89743667;3482.43589584;4305.64102578;4634.74359058;4139.35897415;4137.69230749;4205.12820506
4205.25641019;4202.17948711;4466.15384664;4235.51282052;4397.94871830;2073.33332875;-0.00000896;-0.00000896;4732.56410361;4599.10256487;3516.66666514;4306.92307707;4601.79487256;4139.10256390;4136.53846133;4205.12820506
4205.64102558;4201.79487173;4431.15384657;4235.64102564;4368.84615413;2073.20512362;-0.00000896;-0.00000896;4733.84615489;4602.43589820;3582.05128067;4306.28205142;4660.76923168;4140.51282031;4110.64102537;4205.12820506
4205.51282045;4203.07692301;4468.20512870;4234.23076923;4365.76923105;2070.76922619;-0.00000896;-0.00000896;4734.10256515;4597.56410333;3547.94871649;4305.89743604;4698.20512918;4141.66666646;4135.51282031;4205.12820506
4206.28205122;4202.05128199;4531.15384678;4235.89743590;4432.05128247;2070.64102106;-0.00000896;-0.00000896;4760.00000112;4602.56410333;3450.64102398;4307.56410271;4666.53846245;4139.23076903;4136.66666646;4205.12820506
4205.38461532;4204.10256404;4433.97435940;4236.41025641;4338.20512842;2072.69230311;-0.00000896;-0.00000896;4732.43589848;4600.38461615;3514.74358822;4332.30769252;4569.35897506;4141.02564082;4137.05128185;4205.12820506
4205.25641019;4203.58974352;4368.84615413;4236.15384616;4338.71794893;2073.33332875;-0.00000896;-0.00000896;4731.92307797;4598.71794949;3580.89743451;4305.64102578;4663.84615475;4140.25641005;4136.79487159;4205.12820506
4205.25641019;4202.94871788;4433.84615427;4236.28205129;4339.23076944;2069.35896978;-0.00000896;-0.00000896;4731.92307797;4599.35897513;3549.99999854;4306.41025655;4630.89743674;4139.61538441;4136.92307672;4205.12820506
4206.15384609;4202.82051275;4405.25641061;4235.00000000;4371.28205156;2071.28204670;-0.00000896;-0.00000896;4730.76923182;4600.89743667;3519.61538309;4307.05128219;4632.43589827;4139.48717928;4136.92307672;4205.12820506
4206.02564096;4203.33333327;4464.10256459;4234.87179488;4365.51282079;2073.33332875;-0.00000896;-0.00000896;4730.38461643;4602.69230846;3549.74358829;4306.02564117;4629.23077007;4140.76923056;4109.61538434;4205.12820506
4206.28205122;4203.20512814;4465.00000049;4208.58974352;4404.48717984;2072.43589285;-0.00000896;-0.00000896;4733.71794976;4629.87179571;3518.71794719;4305.64102578;4635.00000084;4139.99999980;4136.53846133;4205.12820506
4205.64102558;4201.66666660;4431.79487222;4209.10256404;4366.02564131;2069.99999542;-0.00000896;-0.00000896;4760.51282163;4602.43589820;3546.79487034;4332.43589765;4601.53846231;4141.15384595;4139.10256390;4205.12820506
4205.64102558;4175.76923063;4403.46153881;4236.41025641;4367.17948746;2068.33332875;-0.00000896;-0.00000896;4759.61538573;4602.82051359;3515.12820360;4332.82051303;4694.61538559;4139.74358954;4136.79487159;4205.12820506
4206.15384609;4201.02564096;4430.76923119;4235.89743590;4338.58974380;2071.02563644;-0.00000896;-0.00000896;4732.69230874;4599.48718026;3519.23076771;4332.69230790;4695.00000098;4139.99999980;4138.33333313;4205.12820506
4206.79487173;4202.17948711;4501.28205184;4235.51282052;4369.61538490;2075.25640567;-0.00000896;-0.00000896;4733.20512925;4596.79487256;3484.48717789;4305.76923091;4731.79487284;4140.51282031;4136.53846133;4205.12820506
4206.79487173;4202.94871788;4463.58974408;4236.66666667;4398.97435933;2101.28204677;-0.00000896;-0.00000896;4731.92307797;4598.71794949;3513.71794719;4305.12820527;4631.79487263;4141.53846133;4137.17948697;4205.12820506
4206.15384609;4203.33333327;4370.38461567;4237.30769231;4369.48717977;2071.53845696;-0.00000896;-0.00000896;4730.76923182;4596.41025718;3512.82051130;4332.82051303;4601.02564179;4140.64102544;4136.02564082;4205.12820506
4206.02564096;4202.17948711;4372.82051310;4237.69230770;4372.17948746;2072.56409798;-0.00000896;-0.00000896;4731.41025746;4630.00000084;3447.43589577;4333.84615406;4563.58974429;4141.15384595;4136.53846133;4205.12820506
4206.41025634;4203.20512814;4336.66666688;4238.33333334;4339.87179508;2073.20512362;-0.00000896;-0.00000896;4732.17948823;4600.00000077;3451.41025475;4306.41025655;4564.10256480;4141.02564082;4136.28205108;4205.12820506
4207.82051275;4201.79487173;4338.97435919;4237.69230770;4338.07692329;2100.76922626;-0.00000896;-0.00000896;4729.10256515;4597.30769308;3421.02563929;4332.30769252;4567.56410326;4140.64102544;4136.53846133;4205.12820506
4207.69230763;4202.30769224;4400.51282086;4238.97435898;4405.89743625;2074.48717490;-0.00000896;-0.00000896;4731.41025746;4596.92307769;3482.43589584;4307.56410271;4535.00000063;4141.15384595;4137.17948697;4205.12820506
4208.07692301;4202.43589737;4305.25641040;4239.74358975;4334.61538483;2071.28204670;229.99999153;-0.00000896;4733.97436002;4629.35897520;3483.33333174;4306.92307707;4536.79487242;4141.66666646;4137.17948697;4205.12820506
4209.10256404;4202.56410250;4334.87179508;4240.51282052;4339.87179508;2073.07691849;8374.35898312;-0.00000896;4731.02564207;4599.74359051;3480.51281892;4306.92307707;4562.69230839;4141.92307672;4137.05128185;4205.12820506
4234.23076923;4202.69230763;4398.84615420;4241.28205129;4404.87179522;2069.23076465;8337.94872664;-0.00000896;4732.82051387;4602.43589820;3479.87179328;4304.74358989;4569.23076993;4140.64102544;4136.79487159;4237.94871795
4235.51282052;4201.79487173;4303.97435912;4266.92307700;4365.89743618;2071.15384157;8308.71795734;-0.00000896;4732.69230874;4600.00000077;3546.66666521;4333.20512842;4534.35897499;4142.82051262;4136.66666646;4237.94871795
4234.23076923;4202.56410250;4365.64102592;4267.56410264;4370.51282079;2067.94871337;229.99999153;-0.00000896;4732.43589848;4628.33333417;3578.58974220;4307.30769245;4568.20512890;4141.92307672;4137.05128185;4237.94871795
4235.12820513;4201.92307686;4304.10256425;4269.87179495;4367.69230797;2070.64102106;229.99999153;-0.00000896;4731.53846258;4602.94871872;3482.05128046;4332.30769252;4568.97435967;4141.28205108;4136.79487159;4237.94871795
4235.76923077;4176.02564089;4399.74359009;4269.48717956;4398.97435933;2073.58973901;229.99999153;-0.00000896;4729.48718053;4597.43589820;3481.79487020;4333.84615406;4537.30769294;4140.76923056;4135.76923056;4237.94871795
4237.43589744;4201.53846147;4368.20512849;4269.35897443;4400.25641061;2070.89743132;229.99999153;-0.00000896;4729.87179592;4630.00000084;3546.02563957;4307.43589758;4602.17948795;4141.53846133;4136.79487159;4237.94871795
4237.56410257;4202.17948711;4337.94871816;4271.15384623;4366.15384644;2070.38461080;229.99999153;-0.00000896;4729.10256515;4598.46153923;3516.28204976;4306.41025655;4595.00000077;4141.15384595;4139.61538441;4237.94871795
4237.43589744;4202.82051275;4367.82051310;4270.89743597;4370.76923105;2072.56409798;229.99999153;-0.00000896;4729.48718053;4601.79487256;3549.61538316;4305.76923091;4633.84615468;4139.61538441;4137.05128185;4237.94871795
4237.56410257;4202.94871788;4335.12820534;4272.69230777;4365.51282079;2070.51281593;229.99999153;-0.00000896;4727.69230874;4600.25641102;3486.15384456;4305.25641040;4661.66666757;4140.76923056;4137.30769210;4237.94871795
4239.10256411;4203.33333327;4339.48717970;4274.35897443;4367.30769259;2072.05127747;229.99999153;-0.00000896;4700.89743687;4599.87179564;3486.92307533;4307.17948732;4631.15384699;4142.17948697;4137.56410236;4237.94871795
4239.74358975;4203.71794865;4430.89743632;4300.64102578;4400.51282086;2071.79486721;229.99999153;-0.00000896;4700.12820610;4602.30769308;3448.20512654;4306.92307707;4630.00000084;4141.66666646;4137.56410236;4237.94871795
4240.51282052;4202.56410250;4372.94871823;4301.92307707;4403.71794907;2071.28204670;229.99999153;-0.00000896;4696.66666764;4601.02564179;3516.53846001;4332.56410278;4635.38461622;4141.15384595;4137.05128185;4237.94871795
4266.92307700;4202.43589737;4368.58974387;4302.56410271;4365.89743618;2070.12820055;229.99999153;-0.00000896;4695.25641123;4602.94871872;3518.07692155;4332.30769252;4569.35897506;4141.28205108;4137.17948697;4270.76923084
4268.33333341;4202.69230763;4340.00000021;4304.87179501;4338.33333355;2068.97435439;229.99999153;-0.00000896;4666.28205219;4600.64102641;3479.23076764;4333.58974380;4663.58974450;4142.30769210;4137.05128185;4270.76923084
4268.97435905;4203.97435891;4433.07692350;4305.00000014;4402.05128240;2068.71794414;229.99999153;-0.00000896;4665.76923168;4629.35897520;3517.05128053;4305.76923091;4602.56410333;4141.92307672;4135.64102544;4270.76923084
4271.28205136;4203.71794865;4399.10256445;4306.28205142;4368.46153874;2040.89743125;229.99999153;-0.00000896;4662.43589834;4602.30769308;3484.10256251;4332.69230790;4663.97435988;4142.69230749;4137.94871774;4270.76923084
4273.33333341;4203.33333327;4432.43589786;4306.79487194;4401.15384651;2068.84614926;229.99999153;-0.00000896;4661.66666757;4630.64102648;3512.69230617;4333.84615406;4601.28205205;4142.69230749;4137.43589723;4270.76923084
4273.33333341;4203.33333327;4371.41025669;4332.43589765;4404.61538497;2068.46153388;229.99999153;-0.00000896;4634.23077007;4630.12820597;3546.92307547;4304.61538476;4595.89743667;4168.33333320;4136.66666646;4270.89743597
4273.97435905;4203.97435891;4337.05128226;4307.56410271;4368.71794900;2068.58973901;229.99999153;-0.00000896;4633.33333417;4633.20512904;3518.33333181;4307.30769245;4631.41025725;4142.30769210;4137.94871774;4270.76923084
4274.74358982;4203.84615378;4366.28205156;4307.56410271;4338.71794893;2069.23076465;229.99999153;-0.00000896;4630.64102648;4627.69230853;3519.10256258;4334.35897457;4667.56410347;4143.33333313;4135.51282031;4270.76923084
4300.76923091;4204.23076917;4333.33333355;4332.94871816;4369.87179515;2041.79486714;229.99999153;-0.00000896;4628.58974443;4602.56410333;3483.33333174;4332.82051303;4635.12820597;4142.82051262;4137.30769210;4303.71794886
4302.05128219;4204.10256404;4339.87179508;4334.10256431;4339.48717970;2041.15384150;229.99999153;-0.00000896;4602.17948795;4628.58974443;3486.92307533;4333.58974380;4665.00000091;4143.20512800;4138.07692287;4303.71794886
4301.92307707;4205.38461532;4372.94871823;4336.28205149;4399.23076958;2039.61537996;229.99999153;-0.00000896;4600.12820590;4632.05128289;3479.48717789;4307.43589758;4601.41025718;4168.84615371;4137.82051262;4303.71794886
4301.79487194;4205.76923070;4369.61538490;4337.05128226;4372.56410285;2041.15384150;229.99999153;-0.00000896;4597.17948795;4601.92307769;3486.15384456;4332.56410278;4568.07692378;4143.46153826;4137.94871774;4303.71794886
4301.79487194;4206.02564096;4402.30769266;4337.56410278;4405.00000035;2069.48717490;229.99999153;-0.00000896;4568.07692378;4630.51282135;3515.51281899;4307.43589758;4602.82051359;4169.23076910;4137.69230749;4303.71794886
4302.69230784;4205.51282045;4367.30769259;4337.05128226;4339.48717970;2040.76922612;229.99999153;-0.00000896;4565.76923147;4634.23077007;3486.92307533;4332.69230790;4598.46153923;4168.71794858;4137.94871774;4303.71794886
4303.20512835;4205.76923070;4466.41025690;4335.76923098;4403.07692343;2040.12820048;229.99999153;-0.00000896;4536.53846217;4633.97435981;3486.28204969;4307.30769245;4693.84615482;4169.48717935;4140.38461518;4303.71794886
4303.71794886;4206.79487173;4368.46153874;4336.53846175;4402.05128240;2039.99999535;229.99999153;-0.00000896;4533.84615448;4634.23077007;3552.30769085;4334.23076944;4602.69230846;4169.61538448;4138.33333313;4303.71794886
4304.74358989;4206.28205122;4404.48717984;4335.76923098;4399.48717984;2039.99999535;229.99999153;-0.00000896;4531.02564165;4633.07692391;3513.46153694;4332.30769252;4633.58974443;4168.97435884;4138.07692287;4303.71794886
4303.33333348;4206.15384609;4305.12820527;4335.00000021;4336.79487201;2037.94871330;229.99999153;-0.00000896;4530.76923140;4661.28205219;3519.48717796;4333.71794893;4693.46153944;4169.35897422;4138.20512800;4303.71794886
4303.58974373;4205.38461532;4406.02564138;4335.12820534;4401.41025676;2038.20512355;229.99999153;-0.00000896;4501.53846210;4662.30769321;3511.79487027;4307.17948732;4602.69230846;4169.99999986;4139.10256390;4303.71794886
4301.79487194;4205.38461532;4401.66666702;4334.23076944;4370.38461567;2040.51281586;229.99999153;-0.00000896;4496.41025697;4632.69230853;3552.05128060;4333.71794893;4696.92307790;4169.99999986;4138.84615364;4303.71794886
4300.64102578;4205.38461532;4372.05128233;4334.10256431;4368.71794900;2039.74358509;229.99999153;-0.00000896;4467.30769280;4635.38461622;3544.87179342;4333.58974380;4661.15384706;4170.51282038;4137.94871774;4303.71794886
4301.79487194;4206.02564096;4400.38461574;4333.84615406;4370.38461567;2038.84614919;229.99999153;-0.00000896;4465.64102613;4665.51282142;3519.23076771;4334.61538483;4665.51282142;4171.28205115;4138.71794851;4303.71794886
4300.38461553;4206.28205122;4400.51282086;4332.56410278;4370.38461567;2040.89743125;229.99999153;-0.00000896;4463.97435946;4662.17948809;3485.76922917;4333.71794893;4667.17948809;4170.25641012;4138.71794851;4303.71794886
4274.48717956;4205.89743583;4370.25641054;4307.56410271;4370.38461567;2040.64102099;8375.64103440;-0.00000896;4437.56410298;4663.84615475;3481.66666507;4306.92307707;4695.51282149;4171.41025628;4139.10256390;4270.76923084
4274.74358982;4206.53846147;4431.66666709;4299.74358989;4340.12820534;2041.79486714;8338.58975228;-0.00000896;4434.35897478;4666.79487270;3446.53845987;4333.71794893;4695.51282149;4170.38461525;4138.84615364;4270.76923084
4272.82051289;4207.56410250;4399.87179522;4305.25641040;4337.30769252;2040.51281586;229.99999153;-0.00000896;4405.38461574;4663.97435988;3517.56410104;4307.43589758;4660.76923168;4171.28205115;4138.46153826;4270.76923084
4272.30769238;4206.66666660;4432.94871837;4305.00000014;4339.87179508;2039.35896971;8338.58975228;-0.00000896;4405.25641061;4660.89743680;3449.74358808;4332.43589765;4732.82051387;4170.89743576;4138.71794851;4270.76923084
4271.28205136;4206.41025634;4467.17948767;4304.10256425;4403.20512856;2038.97435432;-0.00000896;-0.00000896;4403.84615420;4662.82051373;3545.12820367;4306.79487194;4662.69230860;4172.56410243;4140.38461518;4270.76923084
4269.61538469;4207.05128199;4431.92307734;4302.30769245;4339.61538483;2037.05127740;-0.00000896;-0.00000896;4401.41025676;4695.64102662;3517.94871642;4333.07692329;4733.07692412;4171.66666653;4138.84615364;4270.76923084
4269.23076930;4206.79487173;4433.84615427;4301.79487194;4369.23076951;2036.41025176;-0.00000896;-0.00000896;4400.12820548;4665.89743680;3451.92307526;4333.58974380;4668.33333424;4171.41025628;4138.84615364;4270.76923084
4267.94871802;4206.41025634;4404.10256445;4300.25641040;4365.64102592;2010.12820041;-0.00000896;-0.00000896;4372.43589772;4693.33333431;3479.23076764;4305.12820527;4697.56410354;4171.41025628;4139.10256390;4270.76923084
4267.05128212;4207.17948711;4432.17948760;4300.38461553;4367.94871823;2035.76922612;-0.00000896;-0.00000896;4397.94871830;4697.56410354;3421.28204955;4305.89743604;4632.05128289;4172.05128192;4141.15384595;4270.76923084
4241.41025641;4206.79487173;4435.38461581;4273.84615392;4405.51282086;2036.92307227;-0.00000896;-0.00000896;4371.41025669;4696.53846252;3480.12820353;4332.82051303;4661.92307783;4172.43589730;4139.10256390;4237.94871795
4240.64102564;4205.51282045;4432.30769273;4271.02564110;4367.17948746;2035.89743125;-0.00000896;-0.00000896;4369.74359003;4667.56410347;3519.10256258;4334.35897457;4631.41025725;4172.69230756;4140.25641005;4237.94871795
4240.38461539;4205.89743583;4369.10256438;4270.76923084;4335.12820534;2009.23076451;-0.00000896;-0.00000896;4368.33333362;4695.76923175;3518.07692155;4333.97435919;4662.43589834;4172.30769217;4139.23076903;4237.94871795
4239.35897436;4204.99999993;4402.43589779;4267.69230777;4366.66666695;2036.66666201;-0.00000896;-0.00000896;4368.97435926;4668.46153937;3548.07692162;4334.61538483;4667.56410347;4172.56410243;4139.61538441;4237.94871795
4236.66666667;4205.64102558;4400.12820548;4267.30769238;4333.33333355;2036.15384150;-0.00000896;-0.00000896;4368.07692336;4694.23077021;3484.23076764;4333.46153867;4693.97435995;4171.92307679;4139.48717928;4237.94871795
4236.66666667;4205.89743583;4431.53846196;4241.92307693;4399.87179522;2037.69230304;-0.00000896;-0.00000896;4366.15384644;4698.46153944;3481.28204969;4332.94871816;4634.48718032;4172.94871781;4139.48717928;4237.94871795
4235.00000000;4204.87179481;4402.17948753;4240.00000000;4369.35897464;2038.58973894;-0.00000896;-0.00000896;4366.53846182;4695.00000098;3480.76922917;4335.89743611;4632.82051366;4172.05128192;4138.46153826;4237.94871795
4208.97435891;4204.61538455;4435.51282093;4238.84615385;4373.07692336;2038.84614919;-0.00000896;-0.00000896;4365.76923105;4697.30769328;3483.97435738;4335.12820534;4631.15384699;4174.35897422;4138.84615364;4205.12820506
4208.46153840;4203.97435891;4404.87179522;4239.23076923;4369.87179515;2038.46153381;-0.00000896;-0.00000896;4339.74358996;4696.66666764;3516.02563950;4333.20512842;4628.84615468;4172.30769217;4139.74358954;4205.12820506
4207.17948711;4204.87179481;4433.58974401;4236.66666667;4398.58974394;2037.82050817;-0.00000896;-0.00000896;4365.25641054;4727.43589848;3516.41025489;4333.07692329;4633.33333417;4171.66666653;4139.48717928;4205.12820506
4205.76923070;4203.84615378;4334.87179508;4238.20512821;4370.12820541;2038.58973894;-0.00000896;-0.00000896;4338.07692329;4727.43589848;3548.46153701;4333.33333355;4564.48718019;4172.43589730;4138.20512800;4205.12820506
4206.53846147;4203.97435891;4366.66666695;4235.64102564;4337.56410278;2039.61537996;-0.00000896;-0.00000896;4338.84615406;4694.74359072;3479.74358815;4333.84615406;4629.35897520;4173.97435884;4139.99999980;4205.12820506
4206.53846147;4203.71794865;4436.28205170;4234.48717949;4399.10256445;2039.87179022;-0.00000896;-0.00000896;4337.69230790;4693.71794969;3452.17948552;4333.84615406;4631.66666750;4172.05128192;4139.99999980;4205.12820506
4204.61538455;4203.58974352;4398.97435933;4235.64102564;4400.00000035;2037.05127740;-0.00000896;-0.00000896;4338.84615406;4700.00000098;3547.94871649;4332.43589765;4600.64102641;4171.02564089;4139.61538441;4205.12820506
4204.35897429;4204.48717942;4431.02564145;4234.87179488;4369.87179515;2009.99999528;-0.00000896;-0.00000896;4339.48717970;4697.05128303;3544.74358829;4333.33333355;4665.76923168;4172.69230756;4140.25641005;4205.12820506
4204.87179481;4203.07692301;4372.17948746;4235.51282052;4337.17948739;2036.28204663;-0.00000896;-0.00000896;4365.12820541;4697.56410354;3481.28204969;4334.23076944;4694.87179585;4172.56410243;4139.35897415;4205.12820506
4203.97435891;4202.94871788;4433.58974401;4235.00000000;4401.15384651;2038.97435432;-0.00000896;-0.00000896;4339.10256431;4695.51282149;3481.66666507;4332.94871816;4664.87179578;4173.20512807;4139.23076903;4205.12820506
4204.48717942;4203.33333327;4365.25641054;4208.97435891;4366.02564131;2039.48717484;-0.00000896;-0.00000896;4340.25641047;4697.82051380;3519.74358822;4335.00000021;4630.76923161;4172.30769217;4139.61538441;4205.12820506
4203.58974352;4202.94871788;4403.33333368;4208.97435891;4340.25641047;2038.58973894;-0.00000896;-0.00000896;4340.12820534;4695.12820610;3449.35897270;4307.56410271;4632.30769315;4172.56410243;4139.61538441;4205.12820506
4203.46153840;4202.94871788;4432.69230811;4233.97435898;4403.07692343;2036.92307227;229.99999153;-0.00000896;4339.87179508;4698.84615482;3517.69230617;4335.25641047;4600.89743667;4172.56410243;4139.74358954;4205.12820506
4204.10256404;4203.84615378;4401.15384651;4207.94871788;4398.46153881;2038.46153381;229.99999153;-0.00000896;4365.76923105;4698.71794969;3483.46153687;4334.35897457;4628.33333417;4172.43589730;4139.99999980;4205.12820506
4203.97435891;4203.07692301;4432.56410298;4208.58974352;4369.74359003;2038.97435432;229.99999153;-0.00000896;4340.12820534;4698.07692405;3487.05128046;4334.10256431;4661.66666757;4174.10256397;4141.41025621;4205.12820506
4204.48717942;4202.56410250;4434.87179529;4207.94871788;4398.71794907;2037.17948253;229.99999153;-0.00000896;4365.38461567;4696.15384713;3454.10256244;4332.30769252;4602.82051359;4172.17948704;4139.35897415;4205.12820506
4204.23076917;4202.43589737;4432.17948760;4208.46153840;4367.17948746;2037.82050817;8243.84616233;-0.00000896;4365.76923105;4695.00000098;3453.33333167;4334.48717970;4635.12820597;4172.17948704;4140.38461518;4205.12820506
4204.23076917;4203.71794865;4466.28205177;4207.82051275;4400.64102599;2040.64102099;104.48717074;-0.00000896;4365.38461567;4697.30769328;3483.71794712;4307.17948732;4667.17948809;4172.56410243;4139.61538441;4205.12820506
4204.99999993;4203.07692301;4432.05128247;4206.28205122;4367.82051310;2034.99999535;229.99999153;-0.00000896;4368.33333362;4699.87179585;3582.69230631;4333.46153867;4663.84615475;4172.82051269;4140.51282031;4205.12820506
4203.58974352;4203.07692301;4466.53846203;4207.30769224;4365.38461567;2009.87179015;104.48717074;-0.00000896;4369.48717977;4698.84615482;3447.30769064;4335.51282073;4696.79487277;4172.05128192;4139.61538441;4205.12820506
4204.35897429;4201.53846147;4465.64102613;4206.66666660;4370.51282079;2009.61537989;229.99999153;-0.00000896;4371.79487208;4727.17948823;3479.87179328;4335.12820534;4600.25641102;4173.33333320;4139.61538441;4205.12820506
4204.48717942;4175.76923063;4398.71794907;4206.79487173;4335.51282073;2038.97435432;104.48717074;-0.00000896;4370.00000028;4695.64102662;3512.05128053;4332.82051303;4601.15384692;4173.07692294;4138.33333313;4205.12820506
4203.46153840;4175.89743576;4434.61538504;4207.56410250;4365.76923105;2039.23076458;229.99999153;-0.00000896;4370.25641054;4667.17948809;3479.35897276;4336.66666688;4601.15384692;4172.17948704;4139.10256390;4205.12820506
4203.71794865;4201.66666660;4401.53846189;4207.30769224;4370.00000028;2039.87179022;104.48717074;-0.00000896;4372.17948746;4696.15384713;3512.56410104;4332.56410278;4564.74359044;4173.46153833;4139.61538441;4205.12820506
4203.33333327;4202.69230763;4365.51282079;4207.94871788;4340.25641047;2041.15384150;229.99999153;-0.00000896;4372.17948746;4667.43589834;3485.51281892;4332.56410278;4629.48718032;4174.23076910;4139.61538441;4205.12820506
4202.56410250;4201.92307686;4433.84615427;4208.71794865;4372.69230797;2040.12820048;104.48717074;-0.00000896;4371.92307720;4664.23077014;3453.20512654;4333.84615406;4598.97435974;4172.82051269;4139.99999980;4205.12820506
4201.53846147;4201.79487173;4431.53846196;4234.23076923;4398.97435933;2039.23076458;229.99999153;-0.00000896;4372.69230797;4667.94871886;3449.87179321;4334.74358996;4598.97435974;4173.84615371;4140.25641005;4205.12820506
4202.69230763;4175.89743576;4434.23076965;4208.97435891;4369.10256438;2037.82050817;104.48717074;-0.00000896;4371.53846182;4695.12820610;3512.17948565;4332.30769252;4599.23077000;4172.17948704;4139.23076903;4205.12820506
4201.92307686;4202.05128199;4398.58974394;4233.97435898;4366.28205156;2042.30768766;229.99999153;-0.00000896;4370.38461567;4696.41025739;3546.28204983;4334.35897457;4599.48718026;4172.05128192;4139.23076903;4205.12820506
4202.17948711;4202.43589737;4404.87179522;4233.84615385;4338.97435919;2038.97435432;104.48717074;-0.00000896;4370.64102592;4698.97435995;3514.61538309;4332.43589765;4599.48718026;4172.30769217;4139.61538441;4205.12820506
4203.97435891;4202.69230763;4400.25641061;4233.97435898;4370.00000028;2037.43589278;229.99999153;-0.00000896;4370.38461567;4697.30769328;3512.17948565;4336.28205149;4668.33333424;4172.82051269;4139.10256390;4205.12820506
4202.82051275;4203.07692301;4398.97435933;4234.74358975;4305.25641040;2038.33332868;104.48717074;-0.00000896;4371.41025669;4694.10256508;3451.02563936;4307.43589758;4628.71794956;4173.07692294;4137.69230749;4205.12820506
4204.48717942;4202.56410250;4471.66666716;4208.46153840;4372.94871823;2008.97435425;229.99999153;-0.00000896;4371.41025669;4696.92307790;3448.97435731;4332.82051303;4634.61538545;4173.20512807;4138.84615364;4205.12820506
4204.48717942;4202.82051275;4437.30769273;4208.71794865;4334.87179508;2035.25640560;104.48717074;-0.00000896;4370.38461567;4694.87179585;3481.15384456;4332.56410278;4628.20512904;4173.07692294;4139.99999980;4205.12820506
4205.25641019;4202.82051275;4401.53846189;4208.07692301;4340.12820534;2036.53845689;229.99999153;-0.00000896;4372.17948746;4696.92307790;3546.92307547;4333.20512842;4666.41025732;4173.46153833;4137.69230749;4205.12820506
4204.87179481;4201.28205122;4431.79487222;4206.92307686;4371.41025669;2039.10255945;104.48717074;-0.00000896;4372.43589772;4667.17948809;3482.17948559;4334.48717970;4598.07692385;4174.35897422;4139.23076903;4205.12820506
4204.10256404;4176.28205115;4369.74359003;4208.58974352;4338.97435919;2039.23076458;229.99999153;-0.00000896;4372.82051310;4666.66666757;3546.15384470;4307.56410271;4597.56410333;4172.17948704;4139.99999980;4205.12820506
4205.89743583;4201.53846147;4405.51282086;4205.89743583;4340.38461560;2039.23076458;104.48717074;-0.00000896;4398.20512856;4693.58974457;3479.35897276;4333.71794893;4663.58974450;4171.92307679;4139.74358954;4205.12820506
4204.23076917;4202.69230763;4400.76923112;4207.05128199;4373.20512849;2039.35896971;229.99999153;-0.00000896;4372.30769259;4667.69230860;3486.66666507;4307.43589758;4595.00000077;4173.33333320;4139.35897415;4205.12820506
4203.97435891;4203.20512814;4405.38461574;4206.79487173;4336.15384637;2039.74358509;104.48717074;-0.00000896;4398.07692343;4667.56410347;3515.38461386;4333.46153867;4635.51282135;4173.97435884;4139.61538441;4205.12820506
4202.56410250;4202.69230763;4373.07692336;4205.89743583;4335.51282073;2009.87179015;229.99999153;-0.00000896;4372.69230797;4695.12820610;3482.94871635;4334.48717970;4631.66666750;4173.33333320;4139.99999980;4205.12820506
4201.66666660;4203.20512814;4467.82051331;4205.25641019;4339.61538483;2038.20512355;104.48717074;-0.00000896;4371.92307720;4668.46153937;3481.02563943;4333.71794893;4700.76923175;4171.66666653;4139.61538441;4205.12820506
4201.02564096;4202.69230763;4471.53846203;4204.87179481;4368.58974387;2038.07691843;229.99999153;-0.00000896;4370.38461567;4667.69230860;3449.99999834;4333.33333355;4630.76923161;4173.71794858;4142.69230749;4205.12820506
4201.53846147;4201.66666660;4365.89743618;4204.35897429;4306.28205142;2036.79486714;104.48717074;-0.00000896;4370.64102592;4697.05128303;3452.30769064;4335.12820534;4628.46153930;4172.30769217;4138.33333313;4205.12820506
4175.64102551;4202.82051275;4405.38461574;4204.48717942;4333.07692329;2039.61537996;229.99999153;-0.00000896;4370.51282079;4699.87179585;3481.41025482;4336.66666688;4694.35897534;4172.05128192;4139.99999980;4172.30769217
4201.15384609;4202.69230763;4466.15384664;4203.71794865;4306.66666681;2039.35896971;8271.79488035;-0.00000896;4370.51282079;4695.25641123;3513.97435745;4332.82051303;4762.30769342;4172.56410243;4139.99999980;4205.12820506
4201.53846147;4202.69230763;4562.30769301;4203.84615378;4365.51282079;2037.69230304;104.61537586;-0.00000896;4372.05128233;4667.82051373;3479.87179328;4334.23076944;4764.61538573;4171.66666653;4139.74358954;4205.12820506
4201.79487173;4201.15384609;4533.71794935;4203.20512814;4336.66666688;2034.99999535;132.56409388;-0.00000896;4372.17948746;4695.51282149;3513.84615232;4335.25641047;4761.53846265;4173.58974345;4141.66666646;4205.12820506
4202.17948711;4175.89743576;4534.87179550;4203.58974352;4336.15384637;2038.46153381;229.99999153;-0.00000896;4398.58974394;4697.30769328;3452.17948552;4332.82051303;4796.79487298;4171.92307679;4139.61538441;4205.12820506
4201.41025634;4201.41025634;4500.89743646;4203.71794865;4305.00000014;2038.20512355;229.99999153;-0.00000896;4401.02564138;4695.00000098;3578.33333195;4333.33333355;4797.43589862;4173.71794858;4139.87179467;4205.12820506
4201.41025634;4201.53846147;4567.43589813;4202.82051275;4365.89743618;2036.41025176;229.99999153;-0.00000896;4399.74359009;4668.07692398;3483.58974200;4333.07692329;4794.35897554;4172.30769217;4139.35897415;4205.12820506
4201.92307686;4175.89743576;4535.38461601;4201.79487173;4368.58974387;2037.30768766;229.99999153;-0.00000896;4402.56410292;4667.30769321;3479.99999841;4306.41025655;4794.61538580;4171.92307679;4139.35897415;4205.12820506
4201.53846147;4201.28205122;4562.56410326;4202.69230763;4339.35897457;2041.66666201;-0.00000896;-0.00000896;4402.43589779;4668.58974450;3452.82051116;4334.61538483;4796.92307811;4171.02564089;4139.74358954;4205.12820506
4201.41025634;4176.28205115;4468.46153895;4176.28205115;4338.97435919;2037.56409791;-0.00000896;-0.00000896;4403.84615420;4696.15384713;3551.79487034;4307.56410271;4699.23077021;4172.30769217;4140.25641005;4204.99999993
4201.92307686;4202.43589737;4432.94871837;4176.28205115;4335.00000021;2039.10255945;-0.00000896;-0.00000896;4404.87179522;4694.35897534;3519.35897283;4332.43589765;4763.58974471;4171.28205115;4141.15384595;4204.99999993
4201.53846147;4202.05128199;4469.48717998;4176.15384602;4336.66666688;2040.76922612;-0.00000896;-0.00000896;4405.89743625;4696.15384713;3453.84615218;4333.58974380;4763.97436009;4173.71794858;4138.97435877;4204.99999993
4201.15384609;4202.17948711;4437.05128247;4201.92307686;4340.12820534;2040.25640560;-0.00000896;-0.00000896;4431.15384657;4693.46153944;3513.33333181;4332.30769252;4663.58974450;4170.89743576;4141.15384595;4205.12820506
4201.53846147;4203.20512814;4469.35897485;4175.89743576;4372.56410285;2038.07691843;-0.00000896;-0.00000896;4432.30769273;4695.12820610;3548.71794726;4333.07692329;4693.84615482;4172.30769217;4139.48717928;4204.99999993
4201.53846147;4202.94871788;4435.38461581;4201.41025634;4335.12820534;2037.05127740;-0.00000896;-0.00000896;4435.00000042;4698.33333431;3548.46153701;4334.35897457;4635.51282135;4172.30769217;4138.84615364;4205.12820506
4201.53846147;4202.82051275;4465.76923126;4175.38461525;4371.28205156;2042.94871330;-0.00000896;-0.00000896;4434.10256452;4693.33333431;3579.48717810;4333.84615406;4665.89743680;4172.82051269;4139.74358954;4204.99999993
4202.17948711;4203.07692301;4438.07692350;4175.76923063;4307.30769245;2038.20512355;-0.00000896;-0.00000896;4435.89743632;4668.46153937;3547.82051137;4333.84615406;4759.74359086;4172.17948704;4139.10256390;4204.99999993
4201.79487173;4203.71794865;4401.15384651;4175.89743576;4304.74358989;2038.84614919;-0.00000896;-0.00000896;4463.97435946;4697.69230867;3452.56410090;4333.97435919;4700.38461636;4171.79487166;4139.87179467;4204.99999993
4201.28205122;4201.41025634;4434.23076965;4174.48717935;4333.84615406;2038.58973894;-0.00000896;-0.00000896;4465.38461587;4668.46153937;3420.51281878;4333.07692329;4694.61538559;4171.79487166;4139.61538441;4204.99999993
4201.53846147;4201.66666660;4468.58974408;4176.15384602;4367.56410285;2037.30768766;-0.00000896;-0.00000896;4466.02564152;4693.97435995;3419.74358801;4333.97435919;4635.00000084;4171.15384602;4139.35897415;4204.99999993
4202.30769224;4201.53846147;4470.12820562;4201.02564096;4340.00000021;2042.69230304;-0.00000896;-0.00000896;4465.89743639;4667.69230860;3486.41025482;4334.48717970;4726.92307797;4171.15384602;4139.48717928;4205.12820506
4201.41025634;4202.43589737;4404.74359009;4201.79487173;4307.30769245;2039.61537996;-0.00000896;-0.00000896;4466.28205177;4667.69230860;3514.48717796;4334.61538483;4632.56410340;4171.53846140;4137.43589723;4205.12820506
4202.43589737;4202.30769224;4404.74359009;4202.17948711;4305.00000014;2039.87179022;-0.00000896;-0.00000896;4467.43589793;4695.12820610;3414.87179314;4335.38461560;4695.64102662;4170.64102551;4139.61538441;4205.12820506
4202.94871788;4203.07692301;4498.84615441;4203.20512814;4336.41025662;2042.17948253;-0.00000896;-0.00000896;4468.84615434;4664.48718039;3450.89743423;4333.84615406;4727.82051387;4171.02564089;4139.61538441;4205.12820506
4203.33333327;4202.69230763;4404.74359009;4203.20512814;4307.17948732;2038.58973894;-0.00000896;-0.00000896;4469.74359023;4696.15384713;3481.92307533;4332.56410278;4665.38461629;4171.15384602;4138.97435877;4205.12820506
4202.94871788;4201.92307686;4437.56410298;4204.99999993;4371.41025669;2039.99999535;-0.00000896;-0.00000896;4468.84615434;4666.41025732;3544.87179342;4334.35897457;4664.35897527;4171.53846140;4137.56410236;4205.12820506
4203.84615378;4202.43589737;4436.66666709;4204.61538455;4305.89743604;2042.17948253;-0.00000896;-0.00000896;4467.69230818;4694.74359072;3485.12820353;4333.71794893;4663.46153937;4169.87179474;4139.74358954;4205.12820506
4202.69230763;4202.56410250;4399.74359009;4205.38461532;4335.51282073;2070.38461080;-0.00000896;-0.00000896;4467.56410305;4666.79487270;3517.94871642;4333.84615406;4665.51282142;4169.74358961;4139.48717928;4205.12820506
4202.94871788;4202.05128199;4398.97435933;4205.12820506;4303.58974373;2038.07691843;-0.00000896;-0.00000896;4467.43589793;4668.07692398;3485.25640866;4333.46153867;4661.15384706;4171.66666653;4139.74358954;4205.12820506
4203.58974352;4203.71794865;4403.58974394;4205.76923070;4337.69230790;2040.76922612;-0.00000896;-0.00000896;4468.20512870;4695.38461636;3446.15384449;4334.35897457;4700.00000098;4170.89743576;4139.48717928;4205.12820506
4203.07692301;4204.87179481;4432.05128247;4206.41025634;4301.79487194;2037.82050817;-0.00000896;-0.00000896;4467.82051331;4696.02564200;3416.79487006;4332.69230790;4696.53846252;4170.38461525;4139.23076903;4205.12820506
4203.71794865;4204.10256404;4467.69230818;4204.74358968;4366.28205156;2038.20512355;-0.00000896;-0.00000896;4470.00000049;4697.30769328;3418.97435724;4332.69230790;4667.82051373;4169.87179474;4139.35897415;4205.12820506
4203.46153840;4203.07692301;4399.48717984;4205.12820506;4337.43589765;2037.69230304;229.99999153;-0.00000896;4470.00000049;4698.58974457;3512.30769078;4333.07692329;4599.48718026;4170.38461525;4139.87179467;4205.12820506
4203.33333327;4202.69230763;4430.89743632;4205.89743583;4338.07692329;2040.25640560;8241.92308540;-0.00000896;4470.12820562;4695.76923175;3483.46153687;4335.25641047;4664.23077014;4171.15384602;4139.35897415;4205.12820506
4204.10256404;4202.56410250;4398.33333368;4203.97435891;4303.33333348;2039.35896971;102.05127330;-0.00000896;4497.43589800;4694.87179585;3480.64102405;4333.97435919;4695.38461636;4171.53846140;4140.38461518;4205.12820506
4204.35897429;4203.20512814;4404.35897471;4204.10256404;4305.64102578;2039.61537996;133.97435029;-0.00000896;4496.53846210;4695.38461636;3486.02563943;4333.97435919;4697.43589841;4171.92307679;4139.23076903;4205.12820506
4204.48717942;4201.92307686;4463.58974408;4204.35897429;4335.76923098;2042.05127740;229.99999153;-0.00000896;4497.94871851;4694.48718046;3451.53845987;4332.82051303;4697.69230867;4171.15384602;4139.23076903;4205.12820506
4205.25641019;4202.69230763;4404.48717984;4203.97435891;4301.66666681;2067.94871337;229.99999153;-0.00000896;4499.23076979;4667.82051373;3481.79487020;4305.38461553;4729.48718053;4170.76923063;4139.35897415;4205.12820506
4204.99999993;4202.05128199;4400.89743625;4204.48717942;4307.17948732;2041.41025176;229.99999153;-0.00000896;4500.51282107;4694.23077021;3449.74358808;4333.20512842;4664.23077014;4171.15384602;4141.79487159;4205.12820506
4202.69230763;4201.66666660;4437.05128247;4204.35897429;4300.76923091;2040.64102099;229.99999153;-0.00000896;4500.38461594;4668.58974450;3418.84615211;4306.41025655;4728.20512925;4171.53846140;4139.61538441;4205.12820506
4203.84615378;4202.30769224;4437.82051324;4205.38461532;4365.76923105;2040.38461073;229.99999153;-0.00000896;4499.61538518;4697.94871893;3415.38461365;4333.71794893;4631.28205212;4171.28205115;4141.28205108;4205.12820506
4203.71794865;4201.79487173;4465.38461587;4206.02564096;4334.35897457;2042.17948253;229.99999153;-0.00000896;4497.82051338;4695.89743687;3450.76922911;4334.10256431;4696.79487277;4171.53846140;4139.23076903;4205.12820506
4202.82051275;4202.69230763;4431.79487222;4206.41025634;4339.74358996;2042.05127740;229.99999153;-0.00000896;4500.76923133;4701.15384713;3512.56410104;4335.25641047;4630.25641109;4171.41025628;4139.61538441;4205.12820506
4202.56410250;4202.82051275;4430.76923119;4207.30769224;4273.97435905;2041.92307227;229.99999153;-0.00000896;4499.10256466;4694.87179585;3480.25640866;4305.89743604;4667.30769321;4171.53846140;4139.48717928;4205.12820506
4202.82051275;4202.43589737;4400.51282086;4206.15384609;4304.35897450;2042.43589278;229.99999153;-0.00000896;4500.89743646;4695.76923175;3451.28204962;4333.46153867;4630.25641109;4170.76923063;4139.35897415;4205.12820506
4201.53846147;4203.07692301;4402.56410292;4207.69230763;4306.15384630;2040.76922612;229.99999153;-0.00000896;4498.97435953;4693.58974457;3420.25640852;4306.53846168;4665.12820604;4170.25641012;4138.84615364;4205.12820506
4203.20512814;4201.53846147;4401.15384651;4207.30769224;4307.43589758;2041.02563637;229.99999153;-0.00000896;4500.51282107;4695.76923175;3385.64102384;4332.56410278;4598.46153923;4171.02564089;4139.61538441;4205.12820506
4203.20512814;4201.53846147;4405.00000035;4207.43589737;4307.43589758;2040.25640560;229.99999153;-0.00000896;4500.00000056;4668.58974450;3387.69230589;4306.92307707;4629.10256494;4169.99999986;4139.48717928;4205.12820506
4203.33333327;4201.15384609;4398.07692343;4206.92307686;4300.00000014;2041.92307227;229.99999153;-0.00000896;4500.00000056;4668.20512911;3387.43589563;4335.25641047;4634.48718032;4169.74358961;4139.35897415;4205.12820506
4203.07692301;4202.30769224;4436.28205170;4207.56410250;4337.69230790;2038.07691843;229.99999153;-0.00000896;4501.92307748;4694.74359072;3416.53845981;4307.30769245;4600.51282128;4171.53846140;4137.17948697;4205.12820506
4204.23076917;4202.30769224;4369.48717977;4207.43589737;4301.41025655;2040.76922612;229.99999153;-0.00000896;4503.46153902;4696.79487277;3448.58974193;4332.82051303;4628.84615468;4170.51282038;4139.35897415;4205.12820506
4203.58974352;4201.53846147;4402.56410292;4207.56410250;4307.30769245;2042.17948253;229.99999153;-0.00000896;4501.28205184;4694.87179585;3414.23076750;4307.43589758;4699.61538559;4170.38461525;4138.46153826;4205.12820506
4203.33333327;4202.17948711;4469.48717998;4207.17948711;4335.51282073;2040.12820048;229.99999153;-0.00000896;4501.66666723;4694.10256508;3414.35897263;4336.28205149;4667.43589834;4168.84615371;4139.23076903;4205.12820506
4203.20512814;4201.92307686;4399.61538497;4207.56410250;4305.89743604;2041.02563637;229.99999153;-0.00000896;4501.15384671;4693.84615482;3448.58974193;4306.53846168;4597.30769308;4171.02564089;4139.61538441;4205.12820506
4203.46153840;4202.43589737;4371.41025669;4208.58974352;4332.82051303;2040.64102099;229.99999153;-0.00000896;4500.38461594;4668.07692398;3453.33333167;4333.71794893;4661.92307783;4170.76923063;4139.48717928;4205.12820506
4202.82051275;4202.30769224;4432.82051324;4207.17948711;4333.97435919;2037.82050817;229.99999153;-0.00000896;4501.53846210;4666.53846245;3415.12820339;4333.71794893;4632.56410340;4169.87179474;4139.35897415;4205.12820506
4203.58974352;4203.58974352;4367.17948746;4207.56410250;4335.64102585;2069.87179029;229.99999153;-0.00000896;4502.56410312;4694.23077021;3481.53845994;4306.41025655;4602.69230846;4170.25641012;4135.38461518;4205.12820506
4203.71794865;4203.71794865;4398.71794907;4207.17948711;4335.64102585;2070.12820055;229.99999153;-0.00000896;4501.02564159;4667.43589834;3418.46153673;4307.30769245;4633.07692391;4170.25641012;4138.97435877;4205.12820506
4203.84615378;4203.84615378;4432.56410298;4206.66666660;4372.94871823;2036.28204663;229.99999153;-0.00000896;4529.23076986;4694.74359072;3420.51281878;4307.05128219;4630.12820597;4171.15384602;4139.35897415;4205.12820506
4203.20512814;4203.71794865;4402.17948753;4206.02564096;4301.41025655;2039.99999535;229.99999153;-0.00000896;4529.61538524;4698.46153944;3481.92307533;4333.46153867;4698.20512918;4170.38461525;4139.35897415;4205.12820506
4203.33333327;4202.69230763;4333.33333355;4207.05128199;4301.28205142;2039.10255945;229.99999153;-0.00000896;4504.48718005;4695.76923175;3450.76922911;4333.46153867;4662.69230860;4171.02564089;4139.61538441;4205.12820506
4204.35897429;4202.43589737;4403.97435933;4206.66666660;4333.97435919;2041.15384150;229.99999153;-0.00000896;4504.10256466;4693.33333431;3450.76922911;4333.58974380;4633.33333417;4170.25641012;4139.87179467;4205.12820506
4203.97435891;4203.07692301;4437.17948760;4208.46153840;4365.12820541;2042.05127740;229.99999153;-0.00000896;4503.71794928;4695.00000098;3483.58974200;4333.46153867;4660.64102655;4170.64102551;4141.15384595;4205.12820506
4204.10256404;4203.20512814;4372.69230797;4208.58974352;4366.41025669;2068.33332875;229.99999153;-0.00000896;4503.58974415;4693.97435995;3482.17948559;4307.30769245;4599.74359051;4170.76923063;4139.48717928;4205.12820506
4204.87179481;4203.84615378;4399.74359009;4208.07692301;4300.12820527;2041.53845689;229.99999153;-0.00000896;4504.23076979;4668.20512911;3386.15384435;4307.43589758;4701.02564200;4170.64102551;4138.07692287;4205.12820506
4204.61538455;4203.33333327;4438.20512863;4208.71794865;4371.41025669;2040.12820048;229.99999153;-0.00000896;4503.46153902;4693.71794969;3380.64102384;4335.25641047;4662.56410347;4170.25641012;4139.87179467;4205.12820506
4203.84615378;4202.94871788;4401.41025676;4208.71794865;4304.48717963;2040.51281586;229.99999153;-0.00000896;4504.10256466;4697.82051380;3454.10256244;4307.30769245;4663.07692398;4169.99999986;4139.48717928;4205.12820506
4203.33333327;4202.82051275;4403.33333368;4208.84615378;4337.69230790;2042.69230304;229.99999153;-0.00000896;4503.33333389;4697.17948816;3479.61538302;4332.94871816;4664.74359065;4169.35897422;4141.66666646;4205.12820506
4204.10256404;4202.05128199;4401.53846189;4208.46153840;4302.30769245;2042.17948253;229.99999153;-0.00000896;4503.07692364;4667.43589834;3354.99999813;4332.82051303;4665.25641116;4170.76923063;4139.48717928;4205.12820506
4204.10256404;4202.94871788;4404.23076958;4208.33333327;4334.74358996;2041.41025176;102.30768356;-0.00000896;4529.74359037;4697.30769328;3420.38461365;4307.43589758;4628.07692391;4169.99999986;4138.97435877;4205.12820506
4204.10256404;4202.82051275;4305.89743604;4207.94871788;4307.56410271;2067.82050824;8304.10257272;-0.00000896;4531.28205191;4696.79487277;3512.30769078;4332.30769252;4569.87179557;4170.64102551;4139.10256390;4205.12820506
4203.58974352;4204.10256404;4368.71794900;4208.97435891;4304.10256425;2067.82050824;229.99999153;-0.00000896;4529.48718012;4694.87179585;3382.30769050;4335.51282073;4634.74359058;4170.51282038;4139.87179467;4205.12820506
4202.94871788;4203.58974352;4369.48717977;4207.94871788;4336.28205149;2037.69230304;8304.10257272;-0.00000896;4531.79487242;4696.41025739;3447.69230603;4306.28205142;4663.84615475;4169.10256397;4139.61538441;4205.12820506
4202.69230763;4203.33333327;4404.10256445;4208.84615378;4338.97435919;2039.61537996;-0.00000896;-0.00000896;4530.12820576;4699.35897534;3388.33333153;4333.84615406;4698.71794969;4143.46153826;4139.99999980;4205.12820506
4202.82051275;4202.43589737;4402.30769266;4208.71794865;4335.00000021;2041.02563637;-0.00000896;-0.00000896;4531.53846217;4701.41025739;3481.41025482;4307.30769245;4699.74359072;4168.58974345;4138.84615364;4205.12820506
4204.35897429;4201.92307686;4367.94871823;4207.94871788;4307.43589758;2038.46153381;-0.00000896;-0.00000896;4531.92307755;4698.46153944;3416.15384442;4333.58974380;4694.10256508;4170.64102551;4138.84615364;4205.12820506
4202.82051275;4176.28205115;4371.79487208;4234.23076923;4301.66666681;2041.79486714;-0.00000896;-0.00000896;4533.20512883;4698.71794969;3415.64102391;4332.30769252;4698.46153944;4169.99999986;4139.74358954;4205.12820506
4205.12820506;4201.92307686;4400.51282086;4208.46153840;4333.58974380;2067.69230311;-0.00000896;-0.00000896;4531.53846217;4698.58974457;3418.84615211;4307.30769245;4697.43589841;4169.87179474;4139.35897415;4205.12820506
4204.87179481;4202.30769224;4432.94871837;4233.84615385;4336.15384637;2070.25640567;-0.00000896;-0.00000896;4531.41025704;4693.58974457;3387.17948538;4333.84615406;4660.64102655;4170.12820499;4139.74358954;4205.12820506
4205.25641019;4202.30769224;4433.07692350;4207.43589737;4339.35897457;2068.07691849;-0.00000896;-0.00000896;4532.69230832;4694.23077021;3449.35897270;4333.46153867;4635.38461622;4169.61538448;4139.10256390;4205.12820506
4203.33333327;4202.69230763;4405.76923112;4209.10256404;4367.94871823;2040.51281586;-0.00000896;-0.00000896;4533.07692371;4668.07692398;3420.38461365;4332.69230790;4661.28205219;4168.97435884;4139.23076903;4205.12820506
4203.33333327;4202.56410250;4433.84615427;4209.10256404;4367.82051310;2042.94871330;-0.00000896;-0.00000896;4533.84615448;4697.69230867;3481.02563943;4333.20512842;4630.38461622;4169.99999986;4139.48717928;4205.12820506
4204.87179481;4201.28205122;4372.17948746;4235.12820513;4306.02564117;2069.35896978;-0.00000896;-0.00000896;4531.28205191;4694.61538559;3416.92307519;4334.87179508;4701.28205226;4169.35897422;4139.10256390;4205.12820506
4202.69230763;4201.66666660;4403.46153881;4235.38461539;4339.74358996;2042.43589278;-0.00000896;-0.00000896;4531.15384678;4694.10256508;3385.51281871;4333.20512842;4661.53846245;4170.38461525;4138.97435877;4205.12820506
4203.46153840;4202.05128199;4403.46153881;4235.89743590;4307.30769245;2041.92307227;-0.00000896;-0.00000896;4532.05128268;4693.33333431;3351.15384428;4306.92307707;4693.58974457;4170.12820499;4136.92307672;4205.12820506
4203.84615378;4203.33333327;4398.07692343;4235.89743590;4367.94871823;2042.17948253;-0.00000896;-0.00000896;4530.89743653;4697.17948816;3512.05128053;4332.94871816;4629.10256494;4143.20512800;4139.61538441;4205.12820506
4204.10256404;4201.66666660;4401.02564138;4236.41025641;4306.53846168;2041.28204663;-0.00000896;-0.00000896;4530.64102627;4696.53846252;3448.97435731;4306.79487194;4602.43589820;4168.46153833;4138.71794851;4205.12820506
4204.23076917;4201.53846147;4367.43589772;4237.30769231;4333.33333355;2039.35896971;-0.00000896;-0.00000896;4531.53846217;4697.94871893;3513.07692155;4333.84615406;4667.30769321;4170.51282038;4139.87179467;4205.12820506
4205.38461532;4201.02564096;4372.17948746;4236.53846154;4302.05128219;2041.92307227;-0.00000896;-0.00000896;4530.00000063;4694.74359072;3382.56410076;4333.58974380;4700.51282149;4169.10256397;4136.79487159;4205.12820506
4204.48717942;4201.79487173;4433.20512863;4237.05128206;4366.15384644;2067.82050824;-0.00000896;-0.00000896;4530.25641089;4664.10256501;3386.15384435;4306.53846168;4601.79487256;4171.15384602;4138.33333313;4205.12820506
4204.23076917;4202.56410250;4365.12820541;4235.12820513;4273.46153853;2041.66666201;-0.00000896;-0.00000896;4529.35897499;4665.12820604;3416.15384442;4306.92307707;4631.28205212;4168.20512807;4139.35897415;4205.12820506
4204.10256404;4201.79487173;4400.89743625;4235.89743590;4306.92307707;2037.17948253;-0.00000896;-0.00000896;4530.12820576;4694.61538559;3421.28204955;4307.17948732;4661.15384706;4170.89743576;4141.79487159;4205.12820506
4203.97435891;4201.28205122;4402.30769266;4234.87179488;4365.51282079;2039.99999535;-0.00000896;-0.00000896;4530.25641089;4695.89743687;3481.28204969;4333.58974380;4631.41025725;4169.10256397;4139.48717928;4205.12820506
4203.97435891;4201.53846147;4431.92307734;4236.02564103;4335.00000021;2040.76922612;-0.00000896;-0.00000896;4504.48718005;4666.92307783;3483.84615225;4307.17948732;4699.48718046;4168.97435884;4139.23076903;4205.12820506
4204.10256404;4203.33333327;4397.94871830;4234.61538462;4332.69230790;2042.30768766;-0.00000896;-0.00000896;4530.25641089;4666.15384706;3479.61538302;4333.07692329;4727.82051387;4168.58974345;4138.97435877;4205.12820506
4204.10256404;4203.07692301;4371.15384644;4236.92307693;4303.58974373;2041.66666201;-0.00000896;-0.00000896;4502.69230825;4664.74359065;3415.12820339;4306.92307707;4699.23077021;4169.35897422;4137.30769210;4205.12820506
4204.61538455;4202.17948711;4405.76923112;4234.48717949;4307.05128219;2041.15384150;-0.00000896;-0.00000896;4531.15384678;4695.51282149;3446.79487013;4334.74358996;4730.25641130;4169.87179474;4139.35897415;4205.12820506
4205.12820506;4202.17948711;4404.87179522;4233.84615385;4332.69230790;2040.38461073;229.99999153;-0.00000896;4504.35897492;4693.97435995;3387.43589563;4334.10256431;4728.58974464;4169.74358961;4139.23076903;4205.12820506
4204.61538455;4203.58974352;4434.87179529;4234.48717949;4338.33333355;2070.38461080;229.99999153;-0.00000896;4502.82051338;4666.53846245;3419.35897263;4333.46153867;4661.02564193;4169.99999986;4139.10256390;4205.12820506
4205.64102558;4202.56410250;4400.12820548;4208.20512814;4365.51282079;2040.51281586;229.99999153;-0.00000896;4530.25641089;4696.28205226;3481.41025482;4332.82051303;4667.56410347;4168.97435884;4141.41025621;4205.12820506
4205.64102558;4201.53846147;4437.82051324;4208.46153840;4340.25641047;2038.46153381;229.99999153;-0.00000896;4531.28205191;4667.30769321;3451.41025475;4307.56410271;4634.23077007;4169.61538448;4137.94871774;4205.12820506
4205.25641019;4201.02564096;4371.53846182;4208.84615378;4300.38461553;2039.35896971;8370.00000876;-0.00000896;4532.82051345;4697.94871893;3355.12820326;4307.43589758;4664.23077014;4168.84615371;4139.74358954;4205.12820506
4205.51282045;4201.28205122;4402.17948753;4233.97435898;4306.53846168;2041.66666201;38.58973470;-0.00000896;4530.25641089;4667.30769321;3446.79487013;4332.43589765;4727.43589848;4169.99999986;4139.23076903;4205.12820506
4205.64102558;4201.28205122;4340.25641047;4234.10256411;4273.97435905;2069.48717490;229.99999153;-0.00000896;4529.23076986;4667.69230860;3419.99999827;4332.43589765;4664.48718039;4169.10256397;4139.35897415;4205.12820506
4205.64102558;4201.66666660;4397.94871830;4234.48717949;4332.43589765;2071.02563644;38.58973470;-0.00000896;4531.15384678;4664.87179578;3420.38461365;4306.66666681;4693.33333431;4168.46153833;4138.84615364;4205.12820506
4205.64102558;4202.17948711;4370.51282079;4234.87179488;4333.58974380;2042.94871330;229.99999153;-0.00000896;4530.25641089;4667.56410347;3479.74358815;4333.58974380;4663.58974450;4168.58974345;4139.35897415;4205.12820506
4205.51282045;4202.56410250;4402.30769266;4235.76923077;4336.15384637;2040.25640560;38.58973470;-0.00000896;4531.41025704;4667.56410347;3416.41025468;4333.97435919;4633.71794956;4168.71794858;4139.10256390;4205.12820506
4203.71794865;4203.07692301;4366.02564131;4235.51282052;4304.23076937;2039.99999535;229.99999153;-0.00000896;4530.51282114;4694.35897534;3449.10256244;4334.23076944;4663.33333424;4169.61538448;4139.61538441;4205.12820506
4203.20512814;4202.69230763;4404.61538497;4235.38461539;4306.53846168;2042.30768766;38.58973470;-0.00000896;4503.71794928;4696.02564200;3417.82051109;4333.58974380;4693.58974457;4168.71794858;4138.97435877;4205.12820506
4204.23076917;4202.94871788;4432.43589786;4236.02564103;4340.25641047;2069.61538003;229.99999153;-0.00000896;4502.69230825;4693.97435995;3355.38461351;4306.92307707;4698.07692405;4169.10256397;4139.10256390;4205.12820506
4204.74358968;4204.87179481;4402.43589779;4234.48717949;4337.56410278;2041.02563637;38.58973470;-0.00000896;4504.48718005;4695.00000098;3420.89743416;4334.48717970;4661.28205219;4169.87179474;4139.48717928;4205.12820506
4204.87179481;4203.46153840;4401.92307727;4235.25641026;4334.10256431;2039.10255945;229.99999153;-0.00000896;4529.74359037;4699.35897534;3420.25640852;4306.79487194;4629.48718032;4168.33333320;4139.10256390;4205.12820506
4204.10256404;4203.33333327;4367.05128233;4234.61538462;4301.66666681;2068.33332875;38.58973470;-0.00000896;4503.07692364;4694.87179585;3353.58974172;4334.61538483;4630.12820597;4169.74358961;4139.48717928;4205.12820506
4206.15384609;4201.92307686;4432.43589786;4208.97435891;4335.12820534;2040.12820048;229.99999153;-0.00000896;4530.25641089;4695.00000098;3383.46153666;4332.30769252;4628.84615468;4169.99999986;4137.56410236;4205.12820506
4204.48717942;4203.71794865;4399.35897471;4233.84615385;4305.89743604;2041.92307227;38.58973470;-0.00000896;4530.51282114;4695.64102662;3452.94871628;4307.56410271;4666.66666757;4170.25641012;4139.61538441;4205.12820506
4205.89743583;4202.94871788;4470.38461587;4208.71794865;4367.82051310;2035.76922612;229.99999153;-0.00000896;4531.02564165;4694.61538559;3383.84615204;4306.53846168;4696.28205226;4143.46153826;4139.10256390;4205.12820506
4205.76923070;4201.28205122;4434.23076965;4233.97435898;4334.74358996;2038.07691843;38.58973470;-0.00000896;4532.82051345;4701.28205226;3447.94871628;4333.58974380;4699.23077021;4169.10256397;4139.10256390;4205.12820506
4206.15384609;4201.28205122;4432.30769273;4233.84615385;4306.02564117;2040.51281586;229.99999153;-0.00000896;4533.07692371;4697.17948816;3383.58974179;4306.79487194;4700.76923175;4143.33333313;4141.02564082;4205.12820506
4205.12820506;4201.15384609;4432.56410298;4208.71794865;4367.69230797;2068.20512362;38.58973470;-0.00000896;4533.71794935;4694.61538559;3453.33333167;4332.94871816;4634.23077007;4169.74358961;4139.10256390;4205.12820506
4205.12820506;4201.92307686;4372.94871823;4233.97435898;4302.82051296;2042.17948253;229.99999153;-0.00000896;4533.71794935;4668.33333424;3417.94871622;4306.53846168;4700.38461636;4169.87179474;4139.61538441;4205.12820506
4205.38461532;4202.05128199;4371.02564131;4234.74358975;4332.43589765;2068.71794414;38.58973470;-0.00000896;4535.00000063;4695.51282149;3421.41025468;4334.74358996;4630.64102648;4169.23076910;4139.35897415;4205.12820506
4204.23076917;4202.56410250;4436.92307734;4234.10256411;4371.53846182;2068.07691849;229.99999153;-0.00000896;4534.10256473;4668.33333424;3482.69230610;4332.43589765;4694.74359072;4168.71794858;4139.61538441;4205.12820506
4203.20512814;4202.82051275;4401.66666702;4234.61538462;4367.05128233;2068.33332875;38.58973470;-0.00000896;4532.17948781;4667.56410347;3450.51281885;4333.58974380;4668.33333424;4169.99999986;4139.23076903;4205.12820506
4203.58974352;4202.30769224;4434.10256452;4234.61538462;4337.56410278;2040.76922612;229.99999153;-0.00000896;4531.41025704;4694.48718046;3447.82051116;4332.43589765;4663.71794963;4168.58974345;4138.97435877;4205.12820506
4203.97435891;4202.56410250;4340.25641047;4235.64102564;4302.56410271;2068.46153388;38.58973470;-0.00000896;4531.41025704;4698.33333431;3420.64102391;4333.84615406;4629.48718032;4168.20512807;4139.35897415;4205.12820506
4204.48717942;4202.43589737;4366.66666695;4235.51282052;4304.23076937;2068.84614926;229.99999153;-0.00000896;4504.48718005;4693.97435995;3421.28204955;4306.92307707;4668.07692398;4169.10256397;4139.23076903;4205.12820506
4203.71794865;4201.92307686;4434.87179529;4235.76923077;4337.56410278;2042.30768766;38.58973470;-0.00000896;4529.48718012;4693.33333431;3381.66666486;4307.56410271;4693.58974457;4168.97435884;4139.10256390;4205.12820506
4204.23076917;4201.66666660;4436.53846196;4236.02564103;4334.35897457;2069.10255952;229.99999153;-0.00000896;4504.35897492;4693.33333431;3417.69230596;4332.69230790;4700.00000098;4170.64102551;4139.23076903;4205.12820506
4204.87179481;4201.02564096;4498.46153902;4237.69230770;4366.02564131;2042.30768766;38.58973470;-0.00000896;4504.48718005;4664.87179578;3448.07692141;4333.58974380;4729.23077028;4169.35897422;4138.58974339;4205.12820506
4204.99999993;4201.41025634;4436.02564145;4236.53846154;4307.30769245;2037.43589278;229.99999153;-0.00000896;4504.23076979;4665.25641116;3480.25640866;4333.71794893;4697.05128303;4168.71794858;4139.10256390;4205.12820506
4205.51282045;4201.15384609;4436.02564145;4237.30769231;4305.64102578;2036.41025176;34.10255521;-0.00000896;4529.35897499;4668.07692398;3384.99999820;4306.79487194;4728.71794976;4168.46153833;4138.84615364;4205.12820506
4205.64102558;4201.79487173;4435.51282093;4236.15384616;4338.58974380;2040.51281586;105.38460663;-0.00000896;4530.12820576;4695.12820610;3384.74358794;4332.43589765;4693.71794969;4169.35897422;4138.97435877;4205.12820506
4205.12820506;4201.92307686;4436.79487222;4235.64102564;4366.28205156;2042.69230304;105.89742715;-0.00000896;4529.48718012;4666.53846245;3418.20512647;4333.07692329;4632.69230853;4169.35897422;4141.15384595;4205.12820506
4205.76923070;4201.66666660;4371.15384644;4234.74358975;4305.38461553;2038.20512355;229.99999153;-0.00000896;4530.89743653;4668.07692398;3420.64102391;4333.97435919;4662.94871886;4169.23076910;4138.46153826;4205.12820506
4204.61538455;4203.71794865;4400.51282086;4234.10256411;4338.58974380;2042.56409791;229.99999153;-0.00000896;4529.61538524;4694.74359072;3448.58974193;4332.43589765;4693.97435995;4170.12820499;4139.10256390;4205.12820506
4204.23076917;4203.33333327;4436.41025683;4234.87179488;4365.89743618;2042.43589278;229.99999153;-0.00000896;4503.20512876;4666.02564193;3413.58974186;4305.89743604;4668.33333424;4170.25641012;4139.74358954;4205.12820506
4203.97435891;4203.33333327;4435.64102606;4234.35897436;4368.20512849;2041.41025176;229.99999153;-0.00000896;4502.69230825;4666.92307783;3452.56410090;4332.43589765;4662.05128296;4169.74358961;4139.10256390;4205.12820506
4204.10256404;4203.07692301;4399.74359009;4234.87179488;4334.74358996;2040.25640560;-0.00000896;-0.00000896;4503.58974415;4665.12820604;3447.69230603;4332.30769252;4635.00000084;4169.87179474;4139.10256390;4205.12820506
4204.99999993;4203.71794865;4433.33333375;4209.10256404;4335.00000021;2039.35896971;-0.00000896;-0.00000896;4529.48718012;4700.51282149;3382.30769050;4305.89743604;4696.41025739;4168.71794858;4138.97435877;4205.12820506
4205.38461532;4202.69230763;4437.05128247;4233.97435898;4339.74358996;2042.05127740;-0.00000896;-0.00000896;4504.10256466;4694.87179585;3416.92307519;4306.41025655;4633.33333417;4172.69230756;4139.48717928;4205.12820506
4205.12820506;4202.69230763;4400.38461574;4208.20512814;4336.02564124;2042.82050817;-0.00000896;-0.00000896;4503.20512876;4694.10256508;3486.28204969;4333.84615406;4666.79487270;4168.58974345;4139.10256390;4205.12820506
4205.64102558;4203.33333327;4432.17948760;4208.07692301;4334.74358996;2038.84614919;-0.00000896;-0.00000896;4530.12820576;4668.46153937;3447.17948552;4332.69230790;4695.76923175;4169.35897422;4140.89743569;4205.12820506
4205.51282045;4202.94871788;4434.48717991;4207.05128199;4334.61538483;2037.17948253;-0.00000896;-0.00000896;4532.82051345;4694.48718046;3384.48717768;4333.07692329;4665.25641116;4169.35897422;4138.84615364;4205.12820506
4205.12820506;4202.43589737;4367.43589772;4208.58974352;4305.00000014;2009.99999528;-0.00000896;-0.00000896;4534.23076986;4693.71794969;3449.99999834;4306.02564117;4600.12820590;4169.48717935;4139.10256390;4205.12820506
4205.38461532;4201.53846147;4336.66666688;4234.35897436;4304.74358989;2069.35896978;-0.00000896;-0.00000896;4532.82051345;4666.02564193;3414.74358801;4332.43589765;4663.07692398;4168.71794858;4139.23076903;4205.12820506
4204.74358968;4202.56410250;4431.66666709;4208.71794865;4336.53846175;2040.64102099;-0.00000896;-0.00000896;4533.20512883;4666.02564193;3384.99999820;4333.84615406;4701.02564200;4169.87179474;4139.23076903;4205.12820506
4204.61538455;4202.69230763;4467.43589793;4234.61538462;4340.25641047;2067.94871337;-0.00000896;-0.00000896;4531.92307755;4694.48718046;3447.43589577;4307.56410271;4666.92307783;4169.23076910;4139.10256390;4205.12820506
4204.10256404;4202.94871788;4401.53846189;4233.84615385;4305.76923091;2067.69230311;-0.00000896;-0.00000896;4532.43589807;4667.94871886;3451.15384449;4333.71794893;4668.20512911;4169.35897422;4138.71794851;4205.12820506
4203.58974352;4203.07692301;4403.46153881;4234.48717949;4335.12820534;2041.92307227;-0.00000896;-0.00000896;4531.79487242;4665.89743680;3447.69230603;4306.66666681;4727.43589848;4169.23076910;4139.10256390;4205.12820506
4203.33333327;4203.20512814;4369.35897464;4235.25641026;4303.58974373;2040.76922612;-0.00000896;-0.00000896;4530.64102627;4694.10256508;3420.64102391;4333.84615406;4700.38461636;4169.74358961;4138.97435877;4205.12820506
4202.30769224;4202.17948711;4398.07692343;4236.02564103;4304.35897450;2042.05127740;-0.00000896;-0.00000896;4504.48718005;4694.61538559;3416.15384442;4334.23076944;4700.25641123;4168.58974345;4139.48717928;4205.12820506
4204.35897429;4203.07692301;4399.87179522;4208.97435891;4302.05128219;2069.35896978;-0.00000896;-0.00000896;4502.69230825;4695.12820610;3416.15384442;4333.20512842;4667.82051373;4171.41025628;4139.74358954;4205.12820506
4204.61538455;4204.10256404;4465.00000049;4235.12820513;4338.71794893;2068.58973901;-0.00000896;-0.00000896;4503.84615441;4667.43589834;3384.61538281;4332.43589765;4663.71794963;4169.10256397;4140.12820492;4205.12820506
4205.38461532;4202.82051275;4436.79487222;4208.46153840;4368.58974387;2038.84614919;-0.00000896;-0.00000896;4530.89743653;4694.61538559;3447.94871628;4332.56410278;4693.71794969;4168.84615371;4139.23076903;4205.12820506
4204.87179481;4202.94871788;4432.43589786;4234.10256411;4365.12820541;2042.05127740;-0.00000896;-0.00000896;4530.12820576;4667.43589834;3451.15384449;4307.30769245;4666.53846245;4170.64102551;4139.35897415;4205.12820506
4206.02564096;4202.82051275;4370.76923105;4234.74358975;4336.66666688;2041.41025176;-0.00000896;-0.00000896;4532.30769294;4694.87179585;3448.33333167;4333.71794893;4698.71794969;4169.99999986;4139.23076903;4205.12820506
4206.28205122;4202.05128199;4433.71794914;4208.58974352;4338.07692329;2068.07691849;-0.00000896;-0.00000896;4531.41025704;4694.23077021;3420.51281878;4333.20512842;4634.10256494;4169.10256397;4139.48717928;4205.12820506
4206.53846147;4201.41025634;4368.33333362;4209.10256404;4304.23076937;2040.51281586;-0.00000896;-0.00000896;4534.48718012;4668.46153937;3416.02563929;4333.20512842;4630.51282135;4168.84615371;4139.35897415;4205.12820506
4204.99999993;4202.05128199;4433.71794914;4208.20512814;4305.25641040;2037.69230304;-0.00000896;-0.00000896;4534.35897499;4697.05128303;3383.58974179;4307.56410271;4695.51282149;4169.61538448;4139.23076903;4205.12820506
4205.89743583;4201.28205122;4401.79487215;4208.84615378;4335.51282073;2041.02563637;-0.00000896;-0.00000896;4533.97435960;4696.02564200;3450.51281885;4334.10256431;4632.17948802;4169.10256397;4139.23076903;4205.12820506
4203.97435891;4202.94871788;4435.25641068;4209.10256404;4301.02564117;2069.35896978;-0.00000896;-0.00000896;4535.64102627;4695.89743687;3451.41025475;4332.56410278;4697.56410354;4170.25641012;4139.23076903;4205.12820506
4203.97435891;4202.94871788;4432.30769273;4234.61538462;4303.07692322;2042.17948253;229.99999153;-0.00000896;4532.82051345;4666.15384706;3381.92307512;4334.10256431;4729.10256515;4168.84615371;4138.84615364;4205.12820506
4203.97435891;4203.20512814;4470.76923126;4208.46153840;4368.71794900;2068.97435439;131.92306824;-0.00000896;4535.51282114;4667.17948809;3448.46153680;4335.12820534;4630.64102648;4142.56410236;4139.61538441;4205.12820506
4203.58974352;4203.07692301;4400.25641061;4234.74358975;4303.07692322;2067.69230311;8212.43590585;-0.00000896;4535.51282114;4667.94871886;3387.56410076;4332.30769252;4726.66666771;4169.10256397;4139.23076903;4205.12820506
4203.07692301;4202.30769224;4496.92307748;4209.10256404;4372.17948746;2040.76922612;8308.07693170;-0.00000896;4532.69230832;4693.46153944;3381.28204948;4333.71794893;4695.38461636;4168.97435884;4139.48717928;4205.12820506
4203.07692301;4203.07692301;4402.43589779;4234.87179488;4336.79487201;2039.74358509;229.99999153;-0.00000896;4530.51282114;4696.53846252;3485.64102405;4332.56410278;4728.84615489;4169.23076910;4139.35897415;4205.12820506
4204.35897429;4202.56410250;4435.76923119;4235.00000000;4367.94871823;2069.48717490;229.99999153;-0.00000896;4529.74359037;4667.94871886;3415.38461365;4333.84615406;4662.17948809;4168.71794858;4139.10256390;4205.12820506
4205.12820506;4202.82051275;4398.58974394;4234.23076923;4303.71794886;2041.53845689;229.99999153;-0.00000896;4530.51282114;4699.61538559;3448.71794705;4332.94871816;4665.89743680;4169.23076910;4139.10256390;4205.12820506
4204.99999993;4202.56410250;4403.58974394;4236.53846154;4332.82051303;2042.82050817;229.99999153;-0.00000896;4529.61538524;4695.12820610;3421.15384442;4333.71794893;4729.61538566;4169.48717935;4140.89743569;4205.12820506
4206.53846147;4176.02564089;4431.41025683;4235.25641026;4365.12820541;2068.07691849;229.99999153;-0.00000896;4530.64102627;4666.41025732;3452.43589577;4333.97435919;4635.38461622;4168.97435884;4139.48717928;4205.12820506
4205.51282045;4201.28205122;4366.28205156;4235.76923077;4303.84615399;2041.79486714;229.99999153;-0.00000896;4530.12820576;4668.58974450;3446.92307526;4332.94871816;4666.79487270;4143.33333313;4141.41025621;4205.12820506
4204.87179481;4201.79487173;4467.82051331;4235.89743590;4366.28205156;2038.58973894;229.99999153;-0.00000896;4532.30769294;4694.35897534;3447.30769064;4334.23076944;4728.58974464;4169.23076910;4139.23076903;4205.12820506
4204.99999993;4201.79487173;4401.66666702;4236.66666667;4336.79487201;2039.48717484;229.99999153;-0.00000896;4531.41025704;4695.00000098;3421.15384442;4332.56410278;4629.10256494;4168.58974345;4139.48717928;4205.12820506
4206.15384609;4202.05128199;4434.48717991;4234.87179488;4368.58974387;2041.41025176;229.99999153;-0.00000896;4531.02564165;4667.56410347;3512.94871642;4333.33333355;4696.79487277;4170.25641012;4139.10256390;4205.12820506
4204.35897429;4203.07692301;4432.30769273;4235.25641026;4307.30769245;2042.05127740;229.99999153;-0.00000896;4504.35897492;4666.53846245;3511.79487027;4333.33333355;4726.66666771;4168.58974345;4138.84615364;4205.12820506
4203.97435891;4203.07692301;4437.56410298;4235.00000000;4334.10256431;2068.46153388;229.99999153;-0.00000896;4504.35897492;4665.00000091;3484.99999841;4332.43589765;4698.20512918;4143.07692287;4138.84615364;4205.12820506
4203.58974352;4202.56410250;4465.51282100;4235.00000000;4336.02564124;2040.76922612;229.99999153;-0.00000896;4531.02564165;4668.58974450;3514.35897283;4333.84615406;4762.94871906;4170.38461525;4138.84615364;4205.12820506
4204.10256404;4203.33333327;4436.15384657;4234.87179488;4336.28205149;2040.76922612;229.99999153;-0.00000896;4529.48718012;4665.89743680;3415.89743416;4306.53846168;4666.15384706;4168.46153833;4139.23076903;4205.12820506
4203.97435891;4203.07692301;4405.89743625;4234.48717949;4398.20512856;2042.69230304;229.99999153;-0.00000896;4503.84615441;4694.61538559;3512.30769078;4332.82051303;4631.15384699;4169.23076910;4139.23076903;4205.12820506
4204.99999993;4202.82051275;4438.33333375;4234.35897436;4336.15384637;2067.94871337;229.99999153;-0.00000896;4503.33333389;4666.28205219;3546.28204983;4334.74358996;4732.05128310;4168.71794858;4140.64102544;4205.12820506
4204.99999993;4203.46153840;4432.17948760;4233.97435898;4305.51282066;2039.74358509;229.99999153;-0.00000896;4530.00000063;4668.20512911;3448.33333167;4333.84615406;4760.00000112;4169.35897422;4139.48717928;4205.12820506
4204.87179481;4202.56410250;4497.05128261;4233.84615385;4365.12820541;2042.05127740;229.99999153;-0.00000896;4529.87179550;4694.74359072;3453.20512654;4333.20512842;4765.64102676;4168.84615371;4139.10256390;4205.12820506
4205.38461532;4203.58974352;4471.28205177;4208.84615378;4397.94871830;2039.99999535;229.99999153;-0.00000896;4530.89743653;4695.76923175;3482.82051123;4332.82051303;4661.15384706;4168.84615371;4139.23076903;4205.12820506
4206.53846147;4201.41025634;4464.87179536;4207.69230763;4339.61538483;2037.30768766;229.99999153;-0.00000896;4534.35897499;4697.05128303;3453.46153680;4333.46153867;4698.46153944;4169.48717935;4139.35897415;4205.12820506
4206.02564096;4175.64102551;4406.02564138;4207.82051275;4368.71794900;2039.35896971;229.99999153;-0.00000896;4534.10256473;4699.10256508;3547.05128060;4333.33333355;4667.17948809;4168.71794858;4139.48717928;4205.12820506
4204.74358968;4201.53846147;4470.51282100;4233.84615385;4365.51282079;2041.66666201;229.99999153;-0.00000896;4535.00000063;4667.82051373;3514.23076771;4333.58974380;4699.61538559;4168.58974345;4141.15384595;4205.12820506
4204.23076917;4201.66666660;4501.15384671;4208.46153840;4370.64102592;2068.46153388;229.99999153;-0.00000896;4534.10256473;4694.48718046;3486.66666507;4333.71794893;4730.00000105;4168.97435884;4138.84615364;4205.12820506
4204.74358968;4202.17948711;4499.87179543;4234.87179488;4372.05128233;2067.94871337;229.99999153;-0.00000896;4533.20512883;4668.20512911;3486.53845994;4307.43589758;4734.10256515;4168.97435884;4138.58974339;4205.12820506
4203.58974352;4202.43589737;4471.53846203;4235.38461539;4335.89743611;2068.46153388;229.99999153;-0.00000896;4533.58974422;4665.12820604;3484.23076764;4333.97435919;4733.84615489;4169.23076910;4139.23076903;4205.12820506
4203.84615378;4202.43589737;4471.41025690;4234.48717949;4371.15384644;2069.99999542;229.99999153;-0.00000896;4532.82051345;4667.43589834;3454.10256244;4305.89743604;4763.33333445;4169.23076910;4138.71794851;4205.12820506
4203.58974352;4203.20512814;4471.41025690;4235.89743590;4398.58974394;2069.10255952;229.99999153;-0.00000896;4533.07692371;4693.58974457;3480.89743430;4332.43589765;4700.64102662;4169.23076910;4139.48717928;4205.12820506
4202.17948711;4202.17948711;4466.79487229;4235.38461539;4399.87179522;2067.69230311;229.99999153;-0.00000896;4531.02564165;4666.28205219;3485.38461379;4332.69230790;4760.25641137;4169.23076910;4138.97435877;4205.12820506
4202.94871788;4203.07692301;4371.79487208;4236.41025641;4337.17948739;2068.46153388;229.99999153;-0.00000896;4503.46153902;4665.64102655;3519.74358822;4333.71794893;4701.02564200;4168.97435884;4139.10256390;4205.12820506
4203.84615378;4203.84615378;4402.30769266;4235.25641026;4333.71794893;2041.53845689;229.99999153;-0.00000896;4531.28205191;4695.00000098;3484.23076764;4335.12820534;4797.82051401;4168.33333320;4139.35897415;4205.12820506
4204.61538455;4203.58974352;4464.35897485;4234.74358975;4430.76923119;2038.58973894;229.99999153;-0.00000896;4531.92307755;4694.10256508;3516.28204976;4333.97435919;4731.28205233;4170.51282038;4139.61538441;4205.12820506
4205.25641019;4202.17948711;4464.48717998;4234.48717949;4365.38461567;2067.94871337;229.99999153;-0.00000896;4532.43589807;4697.30769328;3546.15384470;4306.41025655;4730.12820617;4171.02564089;4139.35897415;4205.12820506
4206.28205122;4202.94871788;4469.74359023;4234.48717949;4370.89743618;2041.02563637;229.99999153;-0.00000896;4530.51282114;4696.15384713;3514.74358822;4333.46153867;4764.74359086;4168.58974345;4136.41025621;4205.12820506
4206.53846147;4202.05128199;4367.94871823;4208.84615378;4367.56410285;2042.94871330;229.99999153;-0.00000896;4532.82051345;4693.97435995;3551.66666521;4306.66666681;4760.64102676;4168.71794858;4139.23076903;4205.12820506
4207.69230763;4201.66666660;4466.28205177;4208.97435891;4398.97435933;2040.25640560;8275.76923932;-0.00000896;4532.30769294;4667.43589834;3485.51281892;4332.82051303;4728.46153951;4168.33333320;4141.53846133;4205.12820506
4205.76923070;4176.15384602;4400.25641061;4234.23076923;4336.28205149;2037.82050817;8245.00000848;-0.00000896;4535.51282114;4695.64102662;3515.51281899;4333.46153867;4763.46153958;4168.84615371;4139.35897415;4205.12820506
4204.99999993;4202.05128199;4437.82051324;4234.61538462;4372.69230797;2038.20512355;229.99999153;-0.00000896;4536.02564165;4668.33333424;3486.53845994;4333.07692329;4766.02564214;4169.10256397;4136.41025621;4205.12820506
4205.64102558;4201.15384609;4468.58974408;4234.87179488;4372.43589772;2067.94871337;8245.00000848;-0.00000896;4536.15384678;4667.17948809;3514.23076771;4333.84615406;4763.46153958;4168.97435884;4139.23076903;4205.12820506
4204.48717942;4201.53846147;4466.41025690;4234.23076923;4400.76923112;2071.15384157;-0.00000896;-0.00000896;4535.25641089;4667.30769321;3580.38461400;4333.71794893;4924.23077069;4171.66666653;4139.35897415;4205.12820506
4203.58974352;4203.46153840;4434.48717991;4235.12820513;4368.84615413;2067.69230311;-0.00000896;-0.00000896;4534.87179550;4665.38461629;3514.61538309;4332.43589765;4860.64102697;4168.58974345;4141.53846133;4205.12820506
4203.84615378;4202.30769224;4498.97435953;4234.61538462;4402.56410292;2068.07691849;-0.00000896;-0.00000896;4534.10256473;4667.94871886;3519.74358822;4333.84615406;4892.30769370;4168.71794858;4139.23076903;4205.12820506
4202.30769224;4202.69230763;4532.69230832;4234.87179488;4405.89743625;2040.25640560;-0.00000896;-0.00000896;4534.74359037;4694.35897534;3486.66666507;4332.94871816;4826.79487305;4169.23076910;4139.23076903;4205.12820506
4202.17948711;4201.53846147;4497.56410312;4235.25641026;4398.97435933;2040.64102099;-0.00000896;-0.00000896;4533.33333396;4694.61538559;3582.94871656;4333.07692329;4863.46153979;4169.10256397;4138.97435877;4205.12820506
4203.07692301;4201.28205122;4499.61538518;4237.05128206;4434.48717991;2042.43589278;-0.00000896;-0.00000896;4531.28205191;4667.69230860;3612.43589612;4306.53846168;4892.30769370;4169.74358961;4139.10256390;4205.12820506
4204.61538455;4201.79487173;4466.02564152;4235.38461539;4400.25641061;2068.46153388;-0.00000896;-0.00000896;4504.23076979;4697.43589841;3643.58974234;4335.25641047;4892.56410396;4170.38461525;4139.35897415;4205.12820506
4205.25641019;4201.53846147;4434.74359016;4236.41025641;4400.00000035;2042.17948253;-0.00000896;-0.00000896;4529.74359037;4666.66666757;3610.25640894;4332.69230790;4860.76923209;4168.20512807;4138.46153826;4205.12820506
4205.89743583;4176.15384602;4405.00000035;4235.64102564;4399.23076958;2039.87179022;-0.00000896;-0.00000896;4529.74359037;4666.28205219;3580.89743451;4306.41025655;4827.82051408;4169.74358961;4139.48717928;4205.12820506
4206.41025634;4201.79487173;4463.71794921;4235.51282052;4403.71794907;2039.87179022;-0.00000896;-0.00000896;4530.51282114;4667.17948809;3545.76922931;4307.56410271;4927.82051428;4169.48717935;4140.38461518;4205.12820506
4205.89743583;4176.28205115;4467.56410305;4235.89743590;4404.35897471;2042.17948253;-0.00000896;-0.00000896;4532.17948781;4668.07692398;3517.05128053;4333.33333355;4896.28205268;4168.20512807;4138.97435877;4205.12820506
4206.53846147;4201.92307686;4435.38461581;4235.12820513;4432.56410298;2041.79486714;-0.00000896;-0.00000896;4532.17948781;4666.28205219;3584.48717810;4335.51282073;4828.46153972;4142.43589723;4139.99999980;4205.12820506
4205.64102558;4202.69230763;4434.61538504;4234.74358975;4432.94871837;2042.05127740;-0.00000896;-0.00000896;4529.74359037;4666.41025732;3643.07692183;4307.17948732;4862.30769363;4168.20512807;4140.89743569;4205.12820506
4204.35897429;4202.43589737;4436.79487222;4234.35897436;4434.23076965;2041.92307227;-0.00000896;-0.00000896;4530.25641089;4662.30769321;3582.43589605;4332.56410278;4861.28205261;4170.12820499;4139.35897415;4205.12820506
4204.10256404;4203.20512814;4369.74359003;4209.10256404;4403.46153881;2039.35896971;-0.00000896;-0.00000896;4531.28205191;4663.84615475;3643.07692183;4306.41025655;4826.79487305;4169.74358961;4140.38461518;4205.12820506
4203.33333327;4202.69230763;4402.94871830;4234.74358975;4433.97435940;2040.76922612;-0.00000896;-0.00000896;4531.92307755;4668.20512911;3517.56410104;4332.94871816;4863.07692440;4170.89743576;4139.10256390;4205.12820506
4203.58974352;4202.82051275;4403.46153881;4234.74358975;4405.76923112;2041.28204663;-0.00000896;-0.00000896;4530.64102627;4667.69230860;3614.48717817;4307.17948732;4792.30769349;4169.10256397;4139.35897415;4205.12820506
4204.35897429;4202.82051275;4366.66666695;4208.58974352;4401.28205163;2042.94871330;-0.00000896;-0.00000896;4530.12820576;4694.10256508;3585.51281913;4333.97435919;4857.94871927;4170.89743576;4138.97435877;4205.12820506
4204.87179481;4203.07692301;4404.48717984;4209.10256404;4434.87179529;2040.76922612;-0.00000896;-0.00000896;4504.35897492;4693.58974457;3581.79487041;4306.92307707;4797.30769349;4170.51282038;4140.76923056;4205.12820506
4204.10256404;4203.97435891;4370.12820541;4208.71794865;4398.20512856;2042.30768766;-0.00000896;-0.00000896;4530.38461601;4693.71794969;3579.35897297;4334.61538483;4863.58974491;4170.25641012;4138.71794851;4205.12820506
4204.74358968;4203.84615378;4401.41025676;4208.71794865;4405.38461574;2042.17948253;-0.00000896;-0.00000896;4530.64102627;4666.53846245;3578.33333195;4332.56410278;4829.10256536;4169.48717935;4139.35897415;4205.12820506
4205.38461532;4202.94871788;4399.23076958;4234.10256411;4465.00000049;2068.71794414;-0.00000896;-0.00000896;4532.69230832;4693.71794969;3580.51281913;4306.66666681;4858.97436030;4168.84615371;4139.23076903;4205.12820506
4206.79487173;4202.82051275;4402.30769266;4207.43589737;4438.46153888;2067.82050824;-0.00000896;-0.00000896;4533.07692371;4696.92307790;3612.17948586;4333.33333355;4792.17948836;4168.97435884;4138.20512800;4205.12820506
4205.76923070;4202.82051275;4371.92307720;4207.17948711;4433.20512863;2039.10255945;-0.00000896;-0.00000896;4535.51282114;4696.92307790;3611.41025509;4333.33333355;4829.48718074;4169.35897422;4140.25641005;4205.12820506
4204.74358968;4203.07692301;4367.94871823;4207.30769224;4431.02564145;2038.46153381;229.99999153;-0.00000896;4536.15384678;4667.82051373;3647.43589619;4332.30769252;4828.07692433;4169.87179474;4139.61538441;4205.12820506
4204.99999993;4201.53846147;4398.20512856;4208.33333327;4436.41025683;2040.12820048;229.99999153;-0.00000896;4536.02564165;4694.23077021;3613.58974227;4332.94871816;4858.46153979;4169.87179474;4139.48717928;4205.12820506
4204.48717942;4201.41025634;4367.05128233;4234.10256411;4431.15384657;2067.82050824;229.99999153;-0.00000896;4533.97435960;4665.64102655;3646.79487055;4332.94871816;4828.84615510;4168.84615371;4139.61538441;4205.12820506
4203.71794865;4176.15384602;4367.43589772;4234.74358975;4404.23076958;2042.30768766;229.99999153;-0.00000896;4535.00000063;4664.23077014;3643.84615260;4307.56410271;4831.02564228;4168.71794858;4139.23076903;4205.12820506
4204.74358968;4203.71794865;4335.12820534;4234.48717949;4405.89743625;2040.64102099;0.25640130;-0.00000896;4533.97435960;4667.30769321;3613.84615253;4333.84615406;4832.05128331;4169.23076910;4139.35897415;4205.12820506
4203.58974352;4203.58974352;4306.79487194;4235.64102564;4402.17948753;2041.92307227;135.89742722;-0.00000896;4535.38461601;4693.97435995;3551.79487034;4306.92307707;4831.92307818;4168.84615371;4138.71794851;4205.12820506
4203.46153840;4202.69230763;4370.12820541;4234.48717949;4434.61538504;2041.53845689;229.99999153;-0.00000896;4532.94871858;4693.71794969;3550.12820367;4335.12820534;4859.10256543;4168.84615371;4139.23076903;4205.12820506
4203.20512814;4202.94871788;4369.10256438;4235.76923077;4432.94871837;2042.82050817;135.89742722;-0.00000896;4532.17948781;4668.58974450;3545.25640880;4333.46153867;4791.92307811;4169.10256397;4139.23076903;4205.12820506
4204.10256404;4202.56410250;4368.33333362;4234.87179488;4436.28205170;2069.48717490;229.99999153;-0.00000896;4531.53846217;4696.02564200;3583.20512682;4335.00000021;4797.30769349;4170.64102551;4138.58974339;4205.12820506
4204.23076917;4202.43589737;4401.53846189;4234.23076923;4466.41025690;2068.84614926;135.89742722;-0.00000896;4532.69230832;4696.79487277;3612.94871663;4333.46153867;4794.74359093;4168.20512807;4139.10256390;4205.12820506
4205.38461532;4203.20512814;4338.84615406;4234.87179488;4370.89743618;2041.41025176;229.99999153;-0.00000896;4532.69230832;4667.56410347;3551.15384470;4333.46153867;4799.10256529;4169.87179474;4139.99999980;4205.12820506
4206.02564096;4202.82051275;4405.89743625;4208.33333327;4432.43589786;2042.17948253;135.89742722;-0.00000896;4533.20512883;4697.56410354;3484.99999841;4332.56410278;4798.46153965;4169.99999986;4139.23076903;4205.12820506
4205.89743583;4202.56410250;4336.15384637;4234.35897436;4400.25641061;2041.92307227;229.99999153;-0.00000896;4533.97435960;4666.28205219;3613.58974227;4306.28205142;4728.20512925;4168.58974345;4139.23076903;4205.12820506
4205.38461532;4202.94871788;4368.58974387;4208.84615378;4400.00000035;2040.64102099;135.89742722;-0.00000896;4533.97435960;4667.94871886;3613.84615253;4332.56410278;4828.58974484;4169.48717935;4139.23076903;4205.12820506
4206.02564096;4202.56410250;4398.71794907;4234.23076923;4372.82051310;2039.99999535;229.99999153;-0.00000896;4534.23076986;4696.53846252;3515.12820360;4306.15384630;4860.00000132;4142.56410236;4139.10256390;4205.12820506
4206.02564096;4202.30769224;4433.07692350;4208.71794865;4433.46153888;2039.35896971;135.89742722;-0.00000896;4536.15384678;4699.61538559;3550.64102419;4306.02564117;4731.41025746;4169.74358961;4139.23076903;4205.12820506
4204.99999993;4201.66666660;4336.79487201;4234.48717949;4403.33333368;2041.28204663;229.99999153;-0.00000896;4535.89743653;4668.58974450;3581.41025502;4332.82051303;4729.10256515;4169.23076910;4140.38461518;4205.12820506
4205.76923070;4201.53846147;4366.28205156;4207.94871788;4373.07692336;2041.41025176;135.89742722;-0.00000896;4535.51282114;4667.30769321;3549.99999854;4333.58974380;4693.84615482;4170.89743576;4139.10256390;4205.12820506
4204.74358968;4202.56410250;4333.97435919;4234.61538462;4365.51282079;2041.79486714;229.99999153;-0.00000896;4535.25641089;4667.05128296;3578.58974220;4332.30769252;4793.71794990;4169.48717935;4138.97435877;4205.12820506
4204.61538455;4202.82051275;4369.87179515;4234.74358975;4398.20512856;2068.71794414;135.89742722;-0.00000896;4535.12820576;4666.79487270;3544.74358829;4334.10256431;4729.23077028;4169.87179474;4139.61538441;4205.12820506
4203.97435891;4203.07692301;4434.23076965;4233.97435898;4401.41025676;2041.92307227;229.99999153;-0.00000896;4535.51282114;4694.74359072;3513.33333181;4333.20512842;4733.33333438;4169.23076910;4139.48717928;4205.12820506
4204.48717942;4201.79487173;4399.61538497;4235.64102564;4369.10256438;2069.61538003;135.89742722;-0.00000896;4535.00000063;4668.46153937;3518.46153694;4307.56410271;4661.15384706;4169.74358961;4138.84615364;4205.12820506
4203.84615378;4203.20512814;4367.05128233;4234.74358975;4367.17948746;2068.46153388;229.99999153;-0.00000896;4533.20512883;4693.97435995;3546.92307547;4334.87179508;4760.38461650;4169.74358961;4138.71794851;4205.12820506
4203.58974352;4202.69230763;4370.89743618;4236.53846154;4335.12820534;2041.28204663;135.89742722;-0.00000896;4532.43589807;4693.33333431;3516.53846001;4334.10256431;4701.02564200;4169.87179474;4137.17948697;4205.12820506
4204.35897429;4202.17948711;4338.33333355;4235.25641026;4366.41025669;2041.53845689;229.99999153;-0.00000896;4531.02564165;4696.15384713;3514.99999848;4334.10256431;4760.00000112;4169.61538448;4138.84615364;4205.12820506
4204.23076917;4202.94871788;4372.43589772;4236.66666667;4365.64102592;2040.12820048;135.89742722;-0.00000896;4531.28205191;4667.69230860;3482.82051123;4307.43589758;4763.97436009;4169.74358961;4139.10256390;4205.12820506
4205.25641019;4202.17948711;4406.02564138;4236.02564103;4367.05128233;2040.12820048;229.99999153;-0.00000896;4531.02564165;4695.89743687;3516.79487027;4332.43589765;4764.61538573;4169.35897422;4139.10256390;4205.12820506
4205.12820506;4176.28205115;4433.07692350;4237.17948718;4367.82051310;2042.43589278;135.89742722;-0.00000896;4532.69230832;4666.53846245;3482.17948559;4332.56410278;4698.46153944;4143.46153826;4136.53846133;4205.12820506
4206.02564096;4202.05128199;4398.33333368;4235.64102564;4400.12820548;2068.71794414;229.99999153;-0.00000896;4531.02564165;4667.82051373;3548.84615239;4333.46153867;4695.25641123;4169.35897422;4138.97435877;4205.12820506
4204.99999993;4201.41025634;4399.87179522;4236.92307693;4367.69230797;2067.94871337;135.89742722;-0.00000896;4531.28205191;4665.25641116;3485.64102405;4332.94871816;4700.00000098;4170.38461525;4139.35897415;4205.12820506
4204.35897429;4202.82051275;4433.97435940;4235.76923077;4369.48717977;2042.69230304;229.99999153;-0.00000896;4530.76923140;4666.15384706;3481.41025482;4333.84615406;4730.89743694;4169.10256397;4138.97435877;4205.12820506
4203.33333327;4203.33333327;4400.76923112;4235.38461539;4398.58974394;2040.76922612;135.89742722;-0.00000896;4530.76923140;4694.10256508;3512.30769078;4332.30769252;4668.33333424;4171.66666653;4138.33333313;4205.12820506
4204.87179481;4203.20512814;4471.15384664;4234.61538462;4398.97435933;2040.51281586;229.99999153;-0.00000896;4531.41025704;4693.58974457;3452.94871628;4307.56410271;4728.20512925;4169.87179474;4139.48717928;4205.12820506
4203.84615378;4202.30769224;4432.69230811;4234.23076923;4372.69230797;2068.20512362;104.74358099;-0.00000896;4531.53846217;4696.79487277;3547.30769085;4334.74358996;4665.89743680;4170.76923063;4139.23076903;4205.12820506
4204.87179481;4202.56410250;4437.69230811;4234.48717949;4367.17948746;2069.10255952;68.20511938;-0.00000896;4530.25641089;4665.64102655;3545.64102419;4333.71794893;4732.17948823;4170.64102551;4137.56410236;4205.12820506
4203.71794865;4202.56410250;4433.71794914;4233.97435898;4365.64102592;2041.41025176;133.20511952;-0.00000896;4530.76923140;4664.61538552;3512.30769078;4333.58974380;4697.17948816;4169.10256397;4139.35897415;4205.12820506
4205.12820506;4202.94871788;4464.10256459;4233.97435898;4338.46153867;2042.82050817;229.99999153;-0.00000896;4532.05128268;4667.56410347;3513.71794719;4307.17948732;4697.43589841;4169.10256397;4139.74358954;4205.12820506
4205.25641019;4202.69230763;4463.71794921;4235.12820513;4307.05128219;2041.02563637;229.99999153;-0.00000896;4531.53846217;4666.28205219;3484.10256251;4332.43589765;4699.10256508;4169.23076910;4138.97435877;4205.12820506
4204.48717942;4202.30769224;4463.71794921;4234.87179488;4338.84615406;2040.38461073;229.99999153;-0.00000896;4533.46153909;4664.10256501;3486.66666507;4332.69230790;4666.15384706;4169.87179474;4139.35897415;4205.12820506
4205.89743583;4202.43589737;4470.00000049;4233.84615385;4336.79487201;2040.64102099;229.99999153;-0.00000896;4532.56410319;4697.69230867;3515.89743437;4333.46153867;4668.58974450;4169.35897422;4138.84615364;4205.12820506
4205.12820506;4201.92307686;4466.15384664;4208.84615378;4339.10256431;2042.43589278;-0.00000896;-0.00000896;4533.20512883;4696.15384713;3517.17948565;4333.97435919;4699.23077021;4168.58974345;4139.35897415;4205.12820506
4205.89743583;4202.94871788;4463.58974408;4208.71794865;4306.92307707;2068.33332875;-0.00000896;-0.00000896;4535.25641089;4694.23077021;3417.82051109;4333.20512842;4693.33333431;4168.33333320;4138.97435877;4205.12820506
4204.35897429;4203.71794865;4531.15384678;4234.23076923;4370.12820541;2068.71794414;-0.00000896;-0.00000896;4532.17948781;4666.15384706;3419.61538288;4332.30769252;4666.79487270;4168.71794858;4139.10256390;4205.12820506
4204.48717942;4203.97435891;4469.74359023;4208.20512814;4304.23076937;2037.56409791;-0.00000896;-0.00000896;4535.38461601;4668.07692398;3383.84615204;4334.10256431;4667.69230860;4168.84615371;4138.84615364;4205.12820506
4205.25641019;4202.30769224;4471.02564152;4208.20512814;4365.38461567;2037.94871330;-0.00000896;-0.00000896;4536.41025704;4693.97435995;3485.51281892;4334.35897457;4697.30769328;4169.61538448;4139.87179467;4205.12820506
4204.87179481;4201.53846147;4504.35897492;4233.97435898;4333.84615406;2037.30768766;-0.00000896;-0.00000896;4535.64102627;4693.97435995;3518.33333181;4333.97435919;4696.02564200;4168.71794858;4138.97435877;4205.12820506
4204.10256404;4201.15384609;4467.17948767;4209.10256404;4365.51282079;2042.43589278;-0.00000896;-0.00000896;4532.56410319;4693.84615482;3453.58974193;4306.15384630;4660.64102655;4169.87179474;4139.23076903;4205.12820506
4205.25641019;4201.66666660;4530.25641089;4234.48717949;4338.07692329;2067.82050824;-0.00000896;-0.00000896;4532.69230832;4668.20512911;3512.56410104;4333.33333355;4732.56410361;4169.87179474;4140.25641005;4205.12820506
4204.74358968;4201.66666660;4502.43589800;4234.74358975;4333.46153867;2072.05127747;-0.00000896;-0.00000896;4533.46153909;4664.10256501;3450.12820346;4307.43589758;4600.64102641;4169.99999986;4138.97435877;4205.12820506
4204.99999993;4202.05128199;4565.64102634;4235.38461539;4370.89743618;2069.23076465;-0.00000896;-0.00000896;4532.43589807;4663.58974450;3479.23076764;4334.48717970;4695.89743687;4169.87179474;4139.23076903;4205.12820506
4204.23076917;4203.07692301;4564.48718019;4234.61538462;4371.92307720;2039.99999535;-0.00000896;-0.00000896;4533.71794935;4666.79487270;3479.48717789;4335.12820534;4667.05128296;4170.25641012;4138.97435877;4205.12820506
4203.97435891;4202.30769224;4535.89743653;4235.76923077;4335.12820534;2041.28204663;-0.00000896;-0.00000896;4532.94871858;4668.58974450;3482.30769071;4332.56410278;4635.64102648;4169.99999986;4139.35897415;4205.12820506
4203.20512814;4202.17948711;4531.66666730;4234.35897436;4338.58974380;2042.56409791;-0.00000896;-0.00000896;4532.30769294;4693.58974457;3512.17948565;4332.56410278;4660.89743680;4170.38461525;4139.23076903;4205.12820506
4204.10256404;4203.07692301;4531.92307755;4235.51282052;4336.28205149;2042.43589278;-0.00000896;-0.00000896;4531.79487242;4667.43589834;3480.76922917;4307.17948732;4664.23077014;4168.33333320;4139.74358954;4205.12820506
4205.25641019;4202.69230763;4533.20512883;4234.74358975;4371.53846182;2068.97435439;-0.00000896;-0.00000896;4530.51282114;4667.17948809;3452.94871628;4333.20512842;4598.71794949;4169.74358961;4139.35897415;4205.12820506
4206.02564096;4202.56410250;4530.51282114;4208.97435891;4337.05128226;2039.35896971;-0.00000896;-0.00000896;4531.15384678;4668.07692398;3450.38461372;4334.23076944;4629.10256494;4168.20512807;4138.97435877;4205.12820506
4205.51282045;4202.56410250;4532.69230832;4234.74358975;4334.61538483;2040.64102099;-0.00000896;-0.00000896;4533.58974422;4665.64102655;3514.48717796;4306.28205142;4695.76923175;4169.87179474;4138.71794851;4205.12820506
4206.53846147;4202.43589737;4470.25641075;4208.84615378;4273.33333341;2038.07691843;-0.00000896;-0.00000896;4532.94871858;4668.33333424;3417.69230596;4332.43589765;4667.30769321;4168.33333320;4139.35897415;4205.12820506
4206.41025634;4202.05128199;4534.48718012;4234.23076923;4305.89743604;2038.71794407;-0.00000896;-0.00000896;4534.35897499;4695.38461636;3446.79487013;4333.20512842;4697.17948816;4168.97435884;4140.89743569;4205.12820506
4205.25641019;4202.43589737;4531.79487242;4209.10256404;4305.64102578;2039.61537996;-0.00000896;-0.00000896;4535.89743653;4694.87179585;3451.92307526;4332.30769252;4666.41025732;4169.48717935;4138.97435877;4205.12820506
4206.41025634;4201.02564096;4536.02564165;4234.23076923;4333.20512842;2038.58973894;-0.00000896;-0.00000896;4535.76923140;4693.46153944;3420.25640852;4333.20512842;4693.97435995;4169.10256397;4137.43589723;4205.12820506
4205.12820506;4202.43589737;4467.94871844;4208.33333327;4302.82051296;2040.38461073;-0.00000896;-0.00000896;4536.53846217;4694.10256508;3388.58974179;4334.23076944;4660.51282142;4170.12820499;4139.35897415;4205.12820506
4204.74358968;4203.58974352;4569.61538531;4234.61538462;4336.66666688;2069.10255952;-0.00000896;-0.00000896;4535.00000063;4667.17948809;3384.99999820;4334.35897457;4696.15384713;4169.48717935;4139.10256390;4205.12820506
4204.35897429;4202.30769224;4565.12820583;4234.10256411;4333.97435919;2070.12820055;-0.00000896;-0.00000896;4536.41025704;4666.79487270;3386.92307512;4306.79487194;4600.51282128;4169.87179474;4139.35897415;4205.12820506
4203.97435891;4202.82051275;4602.82051359;4234.23076923;4371.53846182;2067.94871337;229.99999153;-0.00000896;4536.15384678;4665.25641116;3479.99999841;4334.87179508;4664.74359065;4169.74358961;4138.97435877;4205.12820506
4203.46153840;4202.69230763;4530.64102627;4234.61538462;4301.92307707;2041.79486714;6.02563207;-0.00000896;4535.89743653;4696.92307790;3453.97435731;4333.46153867;4627.69230853;4171.28205115;4139.35897415;4205.12820506
4203.07692301;4202.82051275;4565.12820583;4235.38461539;4305.64102578;2067.69230311;72.69229887;-0.00000896;4534.61538524;4695.51282149;3447.94871628;4332.30769252;4693.58974457;4170.64102551;4139.35897415;4205.12820506
4203.33333327;4203.20512814;4567.56410326;4235.64102564;4333.46153867;2042.05127740;139.23076055;-0.00000896;4533.33333396;4696.53846252;3386.53845974;4333.07692329;4601.79487256;4169.35897422;4139.23076903;4205.12820506
4203.71794865;4203.71794865;4535.12820576;4235.64102564;4366.66666695;2041.53845689;229.99999153;-0.00000896;4532.82051345;4693.33333431;3449.99999834;4333.07692329;4594.87179564;4168.58974345;4139.10256390;4205.12820506
4205.51282045;4201.92307686;4569.23076993;4235.38461539;4333.07692329;2042.69230304;229.99999153;-0.00000896;4532.05128268;4661.53846245;3451.15384449;4306.02564117;4631.02564186;4169.74358961;4139.35897415;4205.12820506
4205.89743583;4202.05128199;4533.20512883;4235.64102564;4332.94871816;2041.41025176;229.99999153;-0.00000896;4531.66666730;4693.71794969;3387.56410076;4307.05128219;4633.71794956;4169.35897422;4138.71794851;4205.12820506
4205.76923070;4201.66666660;4530.00000063;4236.28205129;4302.94871809;2040.12820048;229.99999153;-0.00000896;4533.20512883;4696.15384713;3452.17948552;4334.10256431;4661.66666757;4168.46153833;4139.35897415;4205.12820506
4205.12820506;4201.66666660;4595.89743667;4235.76923077;4367.56410285;2040.64102099;229.99999153;-0.00000896;4532.56410319;4667.94871886;3386.41025461;4332.43589765;4631.28205212;4168.97435884;4138.84615364;4205.12820506
4205.89743583;4201.79487173;4569.61538531;4235.89743590;4333.84615406;2042.30768766;229.99999153;-0.00000896;4532.69230832;4665.25641116;3416.66666493;4332.82051303;4565.12820583;4170.38461525;4137.05128185;4205.12820506
4205.89743583;4201.92307686;4537.05128268;4235.38461539;4367.69230797;2039.99999535;229.99999153;-0.00000896;4531.41025704;4664.74359065;3480.89743430;4306.92307707;4598.33333410;4168.46153833;4139.10256390;4205.12820506
4203.84615378;4203.58974352;4596.53846231;4235.89743590;4305.00000014;2068.33332875;229.99999153;-0.00000896;4531.79487242;4664.23077014;3453.20512654;4307.56410271;4601.53846231;4169.87179474;4138.84615364;4205.12820506
4204.74358968;4201.79487173;4595.51282128;4234.35897436;4335.12820534;2039.48717484;229.99999153;-0.00000896;4533.07692371;4695.89743687;3385.38461358;4307.56410271;4597.30769308;4170.12820499;4139.61538441;4205.12820506
4203.97435891;4203.46153840;4599.74359051;4234.23076923;4336.41025662;2039.61537996;229.99999153;-0.00000896;4531.02564165;4667.94871886;3387.05128025;4333.97435919;4599.23077000;4169.61538448;4138.97435877;4205.12820506
4204.35897429;4203.84615378;4630.00000084;4234.61538462;4337.30769252;2039.61537996;229.99999153;-0.00000896;4531.53846217;4663.33333424;3419.23076750;4333.58974380;4597.56410333;4170.76923063;4138.97435877;4205.12820506
4204.87179481;4203.71794865;4565.12820583;4208.58974352;4367.30769259;2042.69230304;229.99999153;-0.00000896;4532.82051345;4697.69230867;3448.84615218;4332.94871816;4601.02564179;4168.71794858;4138.71794851;4205.12820506
4205.89743583;4201.79487173;4566.41025711;4234.87179488;4335.51282073;2042.30768766;229.99999153;-0.00000896;4531.28205191;4667.56410347;3419.10256237;4332.82051303;4567.56410326;4168.84615371;4137.82051262;4205.12820506
4206.41025634;4202.69230763;4567.30769301;4234.23076923;4365.89743618;2068.33332875;229.99999153;-0.00000896;4532.43589807;4694.35897534;3452.43589577;4333.20512842;4602.43589820;4169.48717935;4139.61538441;4205.12820506
4206.02564096;4202.05128199;4595.00000077;4234.61538462;4304.23076937;2041.92307227;229.99999153;-0.00000896;4531.53846217;4666.15384706;3420.76922904;4332.56410278;4629.23077007;4170.25641012;4139.23076903;4205.12820506
4205.51282045;4202.94871788;4570.00000070;4234.48717949;4306.92307707;2042.05127740;229.99999153;-0.00000896;4532.94871858;4667.05128296;3448.84615218;4333.71794893;4595.89743667;4168.58974345;4139.35897415;4205.12820506
4205.76923070;4202.43589737;4566.79487249;4235.25641026;4336.02564124;2040.51281586;229.99999153;-0.00000896;4531.92307755;4664.48718039;3453.84615218;4333.97435919;4628.07692391;4168.97435884;4140.12820492;4205.12820506
4205.76923070;4203.07692301;4568.58974429;4209.10256404;4303.20512835;2041.28204663;229.99999153;-0.00000896;4533.07692371;4693.97435995;3414.74358801;4333.20512842;4634.61538545;4169.35897422;4138.97435877;4205.12820506
4205.38461532;4202.05128199;4535.76923140;4234.35897436;4332.56410278;2039.99999535;229.99999153;-0.00000896;4533.97435960;4668.46153937;3413.33333160;4333.20512842;4663.46153937;4170.38461525;4140.12820492;4205.12820506
4204.87179481;4203.71794865;4600.89743667;4208.84615378;4305.89743604;2042.43589278;229.99999153;-0.00000896;4531.53846217;4693.33333431;3289.61538260;4334.87179508;4598.33333410;4169.61538448;4139.10256390;4205.12820506
4205.76923070;4203.46153840;4536.28205191;4208.33333327;4333.07692329;2041.41025176;229.99999153;-0.00000896;4532.69230832;4693.71794969;3420.25640852;4307.17948732;4632.17948802;4168.58974345;4139.23076903;4205.12820506
4204.74358968;4203.20512814;4595.25641102;4208.58974352;4271.28205136;2037.69230304;229.99999153;-0.00000896;4534.74359037;4667.05128296;3415.51281878;4332.56410278;4664.61538552;4168.20512807;4138.84615364;4205.12820506
4205.76923070;4175.89743576;4533.58974422;4207.69230763;4305.51282066;2039.74358509;229.99999153;-0.00000896;4535.76923140;4696.66666764;3448.84615218;4333.07692329;4663.46153937;4170.38461525;4139.23076903;4205.12820506
4204.48717942;4201.15384609;4537.05128268;4234.87179488;4299.48717963;2041.02563637;229.99999153;-0.00000896;4533.84615448;4695.76923175;3447.30769064;4332.56410278;4600.89743667;4169.99999986;4137.56410236;4205.12820506
4204.23076917;4201.53846147;4564.23076993;4234.10256411;4337.56410278;2068.07691849;229.99999153;-0.00000896;4533.97435960;4667.05128296;3451.02563936;4333.71794893;4595.64102641;4169.48717935;4139.23076903;4205.12820506
4204.61538455;4202.30769224;4563.97435967;4234.10256411;4338.84615406;2068.97435439;229.99999153;-0.00000896;4532.69230832;4666.02564193;3317.82051088;4332.94871816;4536.92307755;4168.84615371;4139.35897415;4205.12820506
4205.51282045;4202.30769224;4595.76923154;4234.35897436;4302.17948732;2041.28204663;229.99999153;-0.00000896;4533.07692371;4666.92307783;3387.69230589;4334.61538483;4661.28205219;4168.71794858;4139.61538441;4205.12820506
4204.48717942;4202.30769224;4564.10256480;4235.12820513;4272.56410264;2040.76922612;229.99999153;-0.00000896;4535.51282114;4667.94871886;3355.38461351;4332.82051303;4598.33333410;4169.61538448;4139.35897415;4205.12820506
4203.97435891;4202.69230763;4536.66666730;4233.84615385;4270.25641033;2041.41025176;229.99999153;-0.00000896;4533.71794935;4668.58974450;3413.71794698;4334.48717970;4631.15384699;4169.74358961;4138.84615364;4205.12820506
4204.35897429;4202.82051275;4531.53846217;4235.25641026;4307.05128219;2041.15384150;229.99999153;-0.00000896;4530.64102627;4694.48718046;3418.58974186;4334.87179508;4630.00000084;4169.61538448;4139.74358954;4205.12820506
4204.61538455;4202.82051275;4534.74359037;4235.12820513;4299.48717963;2070.25640567;229.99999153;-0.00000896;4530.51282114;4694.74359072;3388.07692127;4307.43589758;4563.97435967;4143.46153826;4139.23076903;4205.12820506
4204.35897429;4202.56410250;4497.94871851;4235.76923077;4333.33333355;2069.23076465;229.99999153;-0.00000896;4531.15384678;4667.05128296;3385.51281871;4306.41025655;4566.41025711;4169.74358961;4139.10256390;4205.12820506
4206.15384609;4203.07692301;4595.76923154;4234.48717949;4304.10256425;2039.10255945;229.99999153;-0.00000896;4532.30769294;4694.35897534;3414.10256237;4306.53846168;4601.41025718;4168.58974345;4138.84615364;4205.12820506
4205.89743583;4203.20512814;4597.30769308;4208.58974352;4333.20512842;2042.05127740;8341.15385484;-0.00000896;4531.15384678;4695.38461636;3384.74358794;4307.43589758;4568.84615454;4143.46153826;4140.38461518;4205.12820506
4205.25641019;4203.07692301;4562.30769301;4234.87179488;4366.41025669;2042.56409791;38.58973470;-0.00000896;4532.56410319;4693.33333431;3416.02563929;4333.33333355;4566.66666737;4170.51282038;4139.48717928;4205.12820506
4206.02564096;4202.82051275;4567.69230839;4208.84615378;4335.38461560;2036.66666201;229.99999153;-0.00000896;4535.38461601;4664.10256501;3386.28204948;4335.51282073;4598.46153923;4169.61538448;4139.23076903;4205.12820506
4206.79487173;4202.69230763;4570.00000070;4208.84615378;4334.48717970;2040.76922612;38.58973470;-0.00000896;4534.61538524;4667.56410347;3380.89743409;4305.89743604;4569.10256480;4169.23076910;4138.71794851;4205.12820506
4206.79487173;4201.28205122;4535.89743653;4234.35897436;4306.28205142;2040.12820048;-0.00000896;-0.00000896;4536.02564165;4695.51282149;3418.07692134;4307.56410271;4534.74359037;4143.46153826;4138.84615364;4205.12820506
4206.92307686;4175.89743576;4568.71794942;4233.97435898;4333.97435919;2042.30768766;-0.00000896;-0.00000896;4536.02564165;4667.43589834;3383.33333153;4334.35897457;4569.48718019;4169.23076910;4139.61538441;4205.12820506
4205.38461532;4201.66666660;4502.05128261;4207.69230763;4306.66666681;2068.33332875;-0.00000896;-0.00000896;4536.53846217;4667.82051373;3419.48717775;4333.07692329;4499.74359030;4168.33333320;4139.10256390;4205.12820506
4204.87179481;4202.30769224;4504.48718005;4209.10256404;4301.79487194;2068.07691849;-0.00000896;-0.00000896;4562.05128275;4667.05128296;3482.30769071;4306.92307707;4602.05128282;4168.20512807;4140.64102544;4205.12820506
4205.38461532;4202.17948711;4565.12820583;4207.94871788;4301.66666681;2068.97435439;-0.00000896;-0.00000896;4562.17948788;4668.46153937;3383.84615204;4332.43589765;4628.20512904;4143.33333313;4139.23076903;4205.12820506
4204.48717942;4203.58974352;4567.82051352;4234.35897436;4337.69230790;2042.17948253;-0.00000896;-0.00000896;4562.82051352;4693.46153944;3380.76922897;4333.07692329;4563.20512890;4142.94871774;4139.23076903;4205.12820506
4204.48717942;4202.56410250;4438.84615427;4235.12820513;4306.79487194;2042.05127740;-0.00000896;-0.00000896;4536.53846217;4695.38461636;3418.58974186;4332.94871816;4498.58974415;4169.48717935;4138.84615364;4205.12820506
4203.71794865;4203.07692301;4496.53846210;4234.23076923;4272.43589751;2042.82050817;-0.00000896;-0.00000896;4534.74359037;4694.87179585;3415.12820339;4333.84615406;4630.12820597;4169.35897422;4139.74358954;4205.12820506
4204.87179481;4201.92307686;4532.56410319;4235.64102564;4304.23076937;2068.58973901;-0.00000896;-0.00000896;4534.35897499;4666.92307783;3352.43589556;4332.43589765;4535.89743653;4168.71794858;4139.23076903;4205.12820506
4205.51282045;4201.92307686;4503.58974415;4234.35897436;4334.48717970;2069.48717490;-0.00000896;-0.00000896;4533.58974422;4693.71794969;3448.71794705;4332.56410278;4566.02564172;4143.46153826;4138.84615364;4205.12820506
4205.51282045;4202.05128199;4532.30769294;4234.74358975;4333.58974380;2040.89743125;-0.00000896;-0.00000896;4534.87179550;4668.07692398;3420.76922904;4332.43589765;4563.20512890;4168.58974345;4139.87179467;4205.12820506
4205.25641019;4201.66666660;4536.41025704;4235.89743590;4338.20512842;2042.17948253;-0.00000896;-0.00000896;4534.35897499;4667.82051373;3387.69230589;4307.56410271;4600.51282128;4168.58974345;4139.10256390;4205.12820506
4205.38461532;4201.41025634;4497.05128261;4235.89743590;4306.28205142;2041.28204663;-0.00000896;-0.00000896;4532.69230832;4664.35897527;3417.17948545;4332.69230790;4502.82051338;4143.33333313;4138.33333313;4205.12820506
4206.66666660;4176.28205115;4498.84615441;4235.64102564;4335.89743611;2038.33332868;-0.00000896;-0.00000896;4534.10256473;4667.56410347;3414.87179314;4332.56410278;4535.00000063;4168.20512807;4139.23076903;4205.12820506
4206.41025634;4201.02564096;4467.94871844;4235.51282052;4300.64102578;2041.66666201;-0.00000896;-0.00000896;4532.43589807;4693.71794969;3418.71794698;4332.82051303;4532.30769294;4168.71794858;4139.23076903;4205.12820506
4206.79487173;4202.30769224;4563.84615454;4234.61538462;4335.25641047;2041.79486714;-0.00000896;-0.00000896;4534.35897499;4664.87179578;3385.51281871;4334.35897457;4534.48718012;4168.46153833;4139.35897415;4205.12820506
4205.51282045;4201.66666660;4435.38461581;4235.64102564;4271.41025648;2041.02563637;-0.00000896;-0.00000896;4531.79487242;4663.58974450;3382.17948538;4333.33333355;4562.94871865;4143.07692287;4138.84615364;4205.12820506
4205.38461532;4201.28205122;4501.53846210;4234.74358975;4306.15384630;2038.71794407;-0.00000896;-0.00000896;4533.07692371;4693.71794969;3414.99999827;4332.69230790;4533.07692371;4168.84615371;4139.35897415;4205.12820506
4205.76923070;4201.53846147;4503.07692364;4233.84615385;4333.07692329;2068.71794414;-0.00000896;-0.00000896;4530.51282114;4694.87179585;3416.79487006;4305.51282066;4532.56410319;4143.33333313;4139.74358954;4205.12820506
